%Time (s)	Wheel Position (deg)	Slide position (mm)	Wheel Speed (deg/s)	Slide Speed (mm/s)	Actual sample time (ms)	%2/15/20172:11 PM
0.000	12686.520	52.314	950.667	-1329.345	20.000
0.020	12706.380	26.871	1030.500	-1162.425	19.000
0.040	12727.660	7.524	1098.167	-721.293	21.000
0.060	12749.900	-0.415	1098.833	-20.153	19.000
0.080	12771.120	7.140	1021.083	760.576	21.000
0.100	12790.340	28.637	867.333	1306.825	19.000
0.120	12806.120	57.396	784.333	1518.465	21.000
0.140	12821.740	87.999	699.833	1524.031	20.000
0.160	12834.080	117.603	595.667	1425.121	20.000
0.180	12846.060	144.520	590.917	1259.480	20.000
0.200	12857.720	167.537	567.083	1025.767	19.000
0.220	12869.040	185.195	595.917	738.376	21.000
0.240	12881.820	196.818	673.750	407.095	20.000
0.260	12895.840	201.563	711.917	100.830	19.000
0.280	12910.420	200.780	781.583	-227.827	21.000
0.300	12926.980	192.688	833.167	-523.152	20.000
0.320	12943.360	180.496	805.417	-701.076	19.000
0.340	12959.400	164.850	825.083	-856.736	21.000
0.360	12976.480	146.332	865.167	-1000.368	20.000
0.380	12993.920	124.988	883.917	-1113.737	20.000
0.400	13011.880	101.695	912.417	-1256.410	20.000
0.420	13030.460	75.054	951.917	-1354.616	20.000
0.440	13049.820	48.398	956.333	-1309.640	20.000
0.460	13068.980	23.723	1013.167	-1120.711	20.000
0.480	13090.520	5.359	1106.083	-639.081	20.000
0.500	13112.900	-0.292	1154.083	104.797	21.000
0.520	13135.720	9.658	1029.417	870.875	19.000
0.540	13153.600	32.967	818.500	1369.268	19.000
0.560	13169.060	62.417	734.917	1535.036	21.000
0.580	13183.180	93.158	670.833	1527.614	20.000
0.600	13195.980	122.777	613.000	1414.820	20.000
0.620	13207.960	149.218	606.417	1223.205	21.000
0.640	13220.180	171.345	574.583	981.622	18.000
0.660	13231.240	188.127	590.583	684.826	20.000
0.680	13244.320	198.461	711.833	338.318	22.000
0.700	13259.340	201.793	751.167	23.992	18.000
0.720	13274.140	199.475	749.083	-290.142	20.000
0.740	13289.520	190.477	791.083	-561.347	20.000
0.760	13305.980	177.563	882.250	-735.689	22.000
0.780	13324.200	161.226	846.167	-891.156	18.000
0.800	13339.840	142.032	811.750	-1030.374	21.000
0.820	13357.320	120.106	918.250	-1155.707	20.000
0.840	13376.120	95.891	917.833	-1275.539	20.000
0.860	13394.060	69.465	930.917	-1340.541	20.000
0.880	13413.480	43.040	964.333	-1294.797	19.000
0.900	13432.780	19.025	1013.333	-1043.169	20.000
0.920	13454.440	3.117	1169.667	-495.897	22.000
0.940	13478.540	0.445	1129.417	264.871	20.000
0.960	13498.840	13.420	956.917	979.894	20.000
0.980	13516.920	37.880	820.417	1393.451	19.000
1.000	13531.820	67.423	705.500	1532.477	20.000
1.020	13545.480	98.041	652.000	1504.646	20.000
1.040	13558.000	126.908	606.333	1376.945	20.000
1.060	13569.880	152.642	582.750	1180.211	21.000
1.080	13581.500	173.771	590.333	934.086	20.000
1.100	13593.620	189.694	612.833	640.745	19.000
1.120	13606.240	199.137	678.417	299.227	20.000
1.140	13620.720	201.793	730.500	-11.900	19.000
1.160	13635.480	198.753	792.833	-314.518	21.000
1.180	13652.220	189.479	816.083	-579.005	19.000
1.200	13667.960	176.105	806.667	-752.707	20.000
1.220	13684.700	159.567	843.000	-902.544	20.000
1.240	13701.720	140.113	890.333	-1037.219	21.000
1.260	13719.980	118.155	866.000	-1161.849	20.000
1.280	13736.520	93.741	871.917	-1278.162	20.000
1.300	13755.260	67.438	960.083	-1334.463	20.000
1.320	13774.700	41.136	990.500	-1281.617	20.000
1.340	13795.000	17.581	1051.667	-1011.244	20.000
1.360	13816.720	2.472	1112.250	-448.745	20.000
1.380	13839.020	0.829	1097.250	317.461	20.000
1.400	13859.920	14.817	957.750	1029.990	20.000
1.420	13877.260	40.153	814.583	1419.747	20.000
1.440	13892.780	69.865	723.333	1533.628	20.000
1.460	13906.400	100.467	665.417	1502.919	20.000
1.480	13919.440	129.257	609.667	1365.109	20.000
1.500	13930.840	154.592	552.333	1156.731	19.000
1.520	13941.980	175.245	577.417	912.205	20.000
1.540	13954.160	190.753	635.083	615.985	20.000
1.560	13967.420	199.613	694.917	270.373	21.000
1.580	13981.940	201.701	755.917	-44.721	20.000
1.600	13997.440	197.939	770.750	-348.491	19.000
1.620	14012.900	188.097	821.250	-599.990	21.000
1.640	14030.120	174.416	837.417	-770.621	19.000
1.660	14046.280	157.510	828.167	-904.464	20.000
1.680	14063.500	138.194	874.583	-1055.517	21.000
1.700	14081.180	115.392	900.250	-1189.872	20.000
1.720	14099.420	90.793	906.167	-1298.315	19.000
1.740	14117.580	63.876	940.833	-1351.226	20.000
1.760	14137.220	37.665	1005.333	-1266.902	20.000
1.780	14157.780	14.664	1064.833	-959.421	20.000
1.800	14179.740	1.152	1119.583	-341.133	20.000
1.820	14202.180	2.027	1120.833	450.536	22.000
1.840	14223.720	18.441	967.333	1118.664	19.000
1.860	14240.620	44.851	766.917	1461.269	19.000
1.880	14255.100	75.269	712.417	1553.654	21.000
1.900	14269.160	105.948	647.417	1493.130	19.000
1.920	14281.060	134.339	585.500	1337.598	21.000
1.940	14292.920	159.061	587.083	1130.372	20.000
1.960	14304.660	179.145	597.750	858.143	20.000
1.980	14317.060	193.102	649.250	541.898	20.000
2.000	14330.720	200.718	717.500	212.281	20.000
2.020	14345.580	201.594	747.333	-121.303	20.000
2.040	14360.620	196.127	782.250	-413.045	20.000
2.060	14376.900	185.486	829.750	-637.418	19.000
2.080	14393.540	170.991	816.667	-804.274	20.000
2.100	14409.800	153.487	853.333	-951.232	21.000
2.120	14427.820	133.157	928.167	-1053.726	21.000
2.140	14446.340	111.108	874.583	-1213.032	19.000
2.160	14463.100	84.851	884.833	-1344.124	19.000
2.180	14482.140	58.164	973.333	-1338.238	21.000
2.200	14501.860	32.199	1015.083	-1216.679	20.000
2.220	14522.820	11.071	1085.083	-844.900	20.000
2.240	14544.920	0.107	1093.833	-190.528	19.000
2.260	14566.200	4.207	1043.500	598.327	21.000
2.280	14586.380	23.017	954.250	1212.072	20.000
2.300	14604.060	50.748	808.167	1502.151	21.000
2.320	14618.780	81.534	673.917	1550.519	19.000
2.340	14631.440	111.829	618.083	1463.700	20.000
2.360	14643.680	139.545	582.750	1305.161	20.000
2.380	14654.920	163.544	567.083	1067.929	20.000
2.400	14666.760	182.016	628.583	798.324	21.000
2.420	14679.980	195.298	661.833	507.797	19.000
2.440	14693.300	201.978	707.917	150.541	20.000
2.460	14708.400	201.363	781.333	-201.084	20.000
2.480	14724.220	194.408	784.167	-470.370	19.000
2.500	14739.820	182.999	803.917	-667.360	21.000
2.520	14756.460	167.951	838.917	-831.976	20.000
2.540	14773.380	149.879	874.500	-973.433	21.000
2.560	14791.360	129.119	896.083	-1098.063	20.000
2.580	14809.140	105.964	902.333	-1231.010	20.000
2.600	14827.480	80.168	912.417	-1321.412	19.000
2.620	14845.780	53.711	944.250	-1325.058	20.000
2.640	14865.500	28.238	1024.583	-1170.230	21.000
2.660	14886.680	8.537	1088.500	-754.306	20.000
2.680	14908.780	-0.369	1121.250	-80.165	20.000
2.700	14930.780	5.896	1018.583	702.036	19.000
2.720	14949.200	26.349	863.583	1241.694	20.000
2.740	14965.580	53.788	765.583	1494.793	20.000
2.760	14979.920	84.759	678.000	1542.457	20.000
2.780	14992.800	114.424	601.833	1422.114	20.000
2.800	15004.240	141.249	563.667	1258.713	20.000
2.820	15015.700	164.404	591.000	1038.115	21.000
2.840	15027.840	182.508	597.000	781.561	19.000
2.860	15039.760	195.344	636.667	468.834	20.000
2.880	15053.440	201.194	700.167	150.158	20.000
2.900	15067.700	201.379	747.417	-165.576	20.000
2.920	15083.320	194.745	797.000	-461.029	20.000
2.940	15099.420	183.490	815.583	-657.059	20.000
2.960	15115.920	168.734	836.667	-815.918	20.000
2.980	15132.760	150.984	829.250	-956.862	19.000
3.000	15149.240	130.516	854.167	-1090.897	21.000
3.020	15166.960	107.392	874.083	-1225.316	19.000
3.040	15184.520	81.811	959.750	-1313.030	22.000
3.060	15205.220	55.416	1026.417	-1324.483	20.000
3.080	15224.980	29.834	957.583	-1190.064	18.000
3.100	15244.300	9.459	1064.583	-793.141	22.000
3.120	15267.340	-0.230	1130.083	-121.495	19.000
3.140	15288.600	5.251	1024.917	668.383	20.000
3.160	15308.160	25.335	908.667	1258.713	20.000
3.180	15324.880	53.573	777.833	1510.148	20.000
3.200	15339.500	84.252	691.417	1535.164	20.000
3.220	15352.640	114.148	609.667	1443.483	19.000
3.240	15364.300	141.495	609.417	1284.240	23.000
3.260	15376.960	165.080	583.917	1059.676	18.000
3.280	15387.800	183.490	575.917	773.756	20.000
3.300	15400.500	195.790	667.667	448.809	20.000
3.320	15414.400	201.471	724.750	137.938	20.000
3.340	15429.520	201.210	802.167	-200.381	21.000
3.360	15446.020	193.747	781.000	-492.762	18.000
3.380	15460.940	182.093	805.417	-678.812	22.000
3.400	15478.320	166.800	850.833	-843.172	19.000
3.420	15494.620	148.543	807.333	-978.743	19.000
3.440	15511.260	127.706	907.083	-1107.596	22.000
3.460	15530.700	104.244	958.417	-1245.725	20.000
3.480	15549.260	78.233	948.417	-1328.193	20.000
3.500	15568.600	51.730	930.000	-1324.355	19.000
3.520	15586.840	26.364	979.750	-1158.522	20.000
3.540	15608.140	7.140	1103.833	-709.649	20.000
3.560	15630.440	-0.445	1128.167	0.896	20.000
3.580	15652.480	7.570	1015.667	786.552	20.000
3.600	15670.800	29.589	862.417	1327.809	20.000
3.620	15687.260	58.640	770.833	1529.981	20.000
3.640	15701.700	89.442	681.000	1533.180	20.000
3.660	15714.680	119.200	620.750	1429.087	19.000
3.680	15726.720	146.101	589.083	1252.571	21.000
3.700	15738.440	168.934	589.083	1027.111	20.000
3.720	15750.400	186.699	601.083	719.758	20.000
3.740	15762.740	197.479	655.500	369.732	20.000
3.760	15776.860	201.716	761.667	73.255	21.000
3.780	15792.800	200.335	786.333	-250.028	19.000
3.800	15808.080	191.966	767.333	-536.396	19.000
3.820	15823.780	179.483	808.917	-713.232	21.000
3.840	15840.540	163.636	872.833	-867.932	21.000
3.860	15858.340	144.873	862.583	-1008.173	19.000
3.880	15875.080	123.391	861.417	-1136.002	20.000
3.900	15893.080	99.484	918.167	-1264.791	20.000
3.920	15911.720	73.166	950.500	-1339.070	20.000
3.940	15931.100	46.617	981.417	-1315.526	20.000
3.960	15951.120	21.835	1040.417	-1096.591	21.000
3.980	15972.740	4.560	1113.833	-582.012	20.000
4.000	15995.140	-0.107	1089.500	153.484	19.000
4.020	16015.940	10.764	1012.667	909.710	21.000
4.040	16035.240	34.625	863.333	1381.615	19.000
4.060	16050.500	64.091	719.917	1536.507	20.000
4.080	16064.420	94.924	647.667	1526.271	20.000
4.100	16076.600	124.390	598.500	1408.230	20.000
4.120	16088.600	150.708	587.750	1207.082	20.000
4.140	16100.300	172.389	607.833	973.817	21.000
4.160	16112.960	189.218	631.500	666.144	19.000
4.180	16125.600	198.753	655.333	306.457	20.000
4.200	16139.440	201.747	733.750	7.677	20.000
4.220	16154.860	199.075	792.500	-301.403	20.000
4.240	16170.940	189.955	814.917	-571.904	20.000
4.260	16187.400	176.750	831.333	-737.544	20.000
4.280	16204.180	160.397	845.917	-937.989	20.000
4.300	16221.260	139.622	867.667	-1069.208	20.000
4.320	16238.800	118.048	867.250	-1116.680	20.000
4.340	16256.120	94.570	899.000	-1259.800	20.000
4.360	16274.920	67.991	960.917	-1351.673	20.000
4.380	16294.460	41.519	996.667	-1281.233	20.000
4.400	16314.900	18.042	1059.333	-1021.800	20.000
4.420	16336.760	2.472	1111.917	-461.413	20.000
4.440	16359.080	0.845	1131.750	320.468	21.000
4.460	16381.040	14.679	961.250	982.837	19.000
4.480	16397.520	38.786	803.333	1431.966	21.000
4.500	16413.580	70.126	725.250	1586.666	19.000
4.520	16426.600	100.743	645.250	1496.201	21.000
4.540	16439.619	129.533	608.333	1367.860	19.000
4.560	16450.980	154.961	565.667	1158.842	20.000
4.580	16462.619	175.583	592.833	909.518	21.000
4.600	16474.840	191.014	640.250	608.180	20.000
