%Time (s)	Wheel Position (deg)	Slide position (mm)	Wheel Speed (deg/s)	Slide Speed (mm/s)	Actual sample time (ms)	%2/16/20175:31 PM
0.000	3847.780	162.338	237.667	417.701	22.000
0.020	3852.860	170.487	247.750	396.819	18.000
0.040	3857.800	178.180	277.667	371.494	21.000
0.060	3864.040	185.218	321.750	325.351	20.000
0.080	3870.580	191.021	343.917	250.900	20.000
0.100	3877.880	195.134	384.667	157.852	21.000
0.120	3885.980	197.297	427.583	60.361	20.000
0.140	3894.920	197.541	457.750	-32.941	19.000
0.160	3904.280	195.789	485.750	-164.326	20.000
0.180	3914.420	190.976	535.917	-294.885	21.000
0.200	3925.400	184.212	519.333	-383.681	18.000
0.220	3935.260	175.697	518.583	-465.939	21.000
0.240	3946.360	165.643	561.500	-535.947	20.000
0.260	3957.640	154.249	586.500	-609.573	21.000
0.280	3969.680	141.255	582.583	-683.960	19.000
0.300	3981.060	126.891	605.833	-757.015	21.000
0.320	3993.900	110.927	625.333	-841.558	19.000
0.340	4006.000	93.302	627.333	-917.596	20.000
0.360	4019.120	74.520	654.417	-942.286	19.000
0.380	4032.260	55.859	698.250	-931.115	22.000
0.400	4046.920	37.534	715.833	-886.115	19.000
0.420	4060.820	20.884	717.250	-768.313	20.000
0.440	4075.800	7.388	763.000	-560.510	20.000
0.460	4091.160	-0.914	774.083	-251.852	21.000
0.480	4106.520	-2.331	746.333	115.136	19.000
0.500	4120.800	3.580	684.417	467.335	20.000
0.520	4133.800	15.705	611.667	710.999	20.000
0.540	4145.140	31.212	511.250	823.469	19.000
0.560	4154.440	48.090	450.333	854.824	21.000
0.580	4163.220	65.030	397.333	828.991	20.000
0.600	4170.360	81.085	343.667	779.928	20.000
0.620	4177.140	96.211	325.000	733.404	20.000
0.640	4183.320	110.363	291.917	677.042	20.000
0.660	4188.900	123.235	275.917	608.938	21.000
0.680	4194.380	134.781	263.833	553.719	20.000
0.700	4199.400	145.414	238.667	502.244	19.000
0.720	4204.000	154.904	225.833	454.196	20.000
0.740	4208.580	163.678	239.000	422.842	20.000
0.760	4213.620	171.889	258.000	405.832	19.000
0.780	4219.000	179.810	296.667	370.352	21.000
0.800	4225.440	186.558	323.750	311.451	19.000
0.820	4231.940	192.149	345.500	235.603	20.000
0.840	4239.440	195.850	407.000	136.970	22.000
0.860	4248.080	197.602	436.250	37.194	19.000
0.880	4256.880	197.313	466.000	-62.773	20.000
0.900	4266.760	194.921	509.083	-198.092	20.000
0.920	4277.040	189.468	509.167	-318.242	19.000
0.940	4287.180	182.384	523.333	-402.214	20.000
0.960	4298.040	173.397	551.333	-489.740	20.000
0.980	4309.160	162.886	562.917	-559.431	20.000
1.000	4320.560	151.020	576.333	-630.709	20.000
1.020	4332.240	137.630	594.667	-707.127	21.000
1.040	4344.360	122.717	615.833	-786.339	20.000
1.060	4356.840	106.174	631.167	-869.930	20.000
1.080	4369.560	88.092	632.667	-925.594	20.000
1.100	4382.360	69.417	681.083	-937.463	21.000
1.120	4396.680	50.802	702.000	-922.420	19.000
1.140	4410.340	32.842	701.417	-860.917	20.000
1.160	4424.920	16.878	745.500	-721.154	20.000
1.180	4439.940	4.646	737.917	-476.411	19.000
1.200	4454.560	-1.691	766.833	-155.630	21.000
1.220	4470.360	-1.371	752.667	198.473	20.000
1.240	4484.240	6.093	658.583	534.360	20.000
1.260	4496.740	19.285	582.750	750.795	20.000
1.280	4507.540	35.310	501.917	835.148	20.000
1.300	4516.900	52.173	437.250	843.272	20.000
1.320	4525.060	68.762	372.917	810.965	20.000
1.340	4531.960	84.513	333.417	767.107	20.000
1.360	4538.520	99.395	315.833	717.473	20.000
1.380	4544.560	113.135	288.667	652.796	20.000
1.400	4550.060	125.550	257.833	599.354	19.000
1.420	4555.000	137.082	252.667	538.232	22.000
1.440	4560.160	147.120	243.000	483.266	19.000
1.460	4564.720	156.519	229.667	447.659	20.000
1.480	4569.500	165.064	245.417	413.575	20.000
1.500	4574.600	173.199	269.417	412.433	20.000
1.520	4580.300	181.303	294.833	359.752	20.000
1.540	4586.460	187.442	334.167	282.508	21.000
1.560	4593.620	192.667	362.083	227.606	19.000
1.580	4600.960	196.307	393.417	123.768	20.000
1.600	4609.400	197.602	431.500	24.309	20.000
1.620	4618.280	197.221	484.167	-82.829	21.000
1.640	4628.620	194.144	509.250	-221.322	19.000
1.660	4638.520	188.523	509.167	-329.477	21.000
1.680	4649.100	181.135	536.583	-407.101	20.000
1.700	4659.920	172.224	550.417	-493.675	20.000
1.720	4671.040	161.454	546.500	-568.507	19.000
1.740	4681.940	149.557	575.750	-627.218	21.000
1.760	4694.100	136.244	610.500	-712.078	20.000
1.780	4706.220	121.072	617.333	-794.780	20.000
1.800	4718.760	104.468	620.667	-879.387	20.000
1.820	4731.060	86.097	619.500	-931.496	19.000
1.840	4743.860	67.497	687.750	-934.924	21.000
1.860	4758.340	48.867	704.583	-920.579	18.000
1.880	4771.940	31.014	703.583	-856.537	21.000
1.900	4786.600	15.172	726.417	-703.700	19.000
1.920	4801.080	3.504	768.167	-451.277	22.000
1.940	4817.120	-2.331	769.583	-109.106	18.000
1.960	4831.740	-0.701	764.417	259.532	23.000
1.980	4847.180	7.723	661.417	576.505	17.000
2.000	4858.100	21.646	541.167	779.294	21.000
2.020	4869.260	38.082	517.333	850.127	20.000
2.040	4878.500	55.143	417.250	845.938	20.000
2.060	4886.220	71.671	377.250	805.951	21.000
2.080	4893.640	87.331	339.500	763.934	19.000
2.100	4899.840	102.152	307.417	710.428	21.000
2.120	4905.980	115.649	283.250	637.563	19.000
2.140	4911.160	127.713	253.583	576.822	20.000
2.160	4916.220	138.803	242.917	530.742	19.000
2.180	4920.900	148.948	232.583	482.822	21.000
2.200	4925.600	158.149	235.333	439.408	20.000
2.220	4930.380	166.603	248.583	410.021	20.000
2.240	4935.580	174.585	266.167	387.806	19.000
2.260	4941.080	182.034	290.667	352.834	20.000
2.280	4947.320	188.523	337.500	288.094	21.000
2.300	4954.540	193.428	377.417	204.249	20.000
2.320	4962.260	196.597	382.750	104.029	18.000
2.340	4970.020	197.602	423.667	11.361	21.000
2.360	4979.300	196.947	481.917	-99.522	20.000
2.380	4989.180	193.504	519.500	-235.349	21.000
2.400	4999.880	187.701	520.333	-337.855	19.000
2.420	5009.980	180.115	517.917	-420.747	20.000
2.440	5020.820	170.914	568.417	-499.578	22.000
2.460	5032.400	160.190	546.000	-567.619	18.000
2.480	5042.820	148.202	558.667	-637.310	21.000
2.500	5054.940	134.644	613.833	-717.219	20.000
2.520	5067.060	119.503	598.083	-799.223	20.000
2.540	5079.000	102.731	614.250	-873.167	20.000
2.560	5091.760	84.711	654.417	-927.434	20.000
2.580	5105.120	65.867	681.000	-945.904	20.000
2.600	5118.960	47.177	701.083	-918.993	20.000
2.620	5133.160	29.476	721.167	-838.385	20.000
2.640	5147.820	14.136	744.667	-683.770	20.000
2.660	5162.920	2.757	762.417	-428.935	21.000
2.680	5178.320	-2.468	797.500	-82.195	21.000
2.700	5194.180	-0.411	702.333	283.714	17.000
2.720	5206.500	8.515	637.333	591.293	22.000
2.740	5219.800	22.530	605.417	786.021	20.000
2.760	5230.320	39.149	486.000	849.809	20.000
2.780	5239.440	56.012	413.000	836.100	19.000
2.800	5246.980	72.418	359.917	801.445	20.000
2.820	5253.960	88.016	326.833	763.172	20.000
2.840	5260.100	102.838	298.417	707.000	20.000
2.860	5265.960	116.212	281.917	635.278	21.000
2.880	5271.360	128.307	259.167	575.045	19.000
2.900	5276.380	139.306	247.250	531.694	20.000
2.920	5281.260	149.573	235.000	479.839	20.000
2.940	5285.820	158.728	225.667	481.806	19.000
2.960	5290.480	168.522	253.917	412.750	21.000
2.980	5295.980	175.271	277.000	350.993	19.000
3.000	5301.600	182.857	308.000	357.023	21.000
3.020	5308.300	189.163	336.500	280.604	19.000
3.040	5315.120	193.977	375.417	195.934	21.000
3.060	5323.380	196.886	429.583	89.875	21.000
3.080	5332.140	197.617	447.833	-0.127	19.000
3.100	5341.360	196.719	483.833	-121.419	20.000
3.120	5351.480	192.667	518.333	-263.340	21.000
3.140	5361.980	186.421	532.750	-357.467	20.000
3.160	5372.700	178.439	529.917	-445.311	19.000
3.180	5383.260	168.690	544.333	-519.190	20.000
3.200	5394.540	157.692	571.667	-590.468	20.000
3.220	5406.060	145.048	585.333	-666.887	20.000
3.240	5417.900	131.019	585.333	-740.703	20.000
3.260	5429.660	115.359	626.750	-828.991	20.000
3.280	5442.860	97.948	642.500	-903.506	20.000
3.300	5455.320	79.440	650.833	-942.159	20.000
3.320	5468.980	60.505	678.250	-944.508	19.000
3.340	5482.420	41.936	694.667	-908.076	20.000
3.360	5496.880	24.601	736.917	-809.379	21.000
3.380	5511.800	10.145	758.333	-620.236	20.000
3.400	5527.160	0.427	772.000	-330.111	20.000
3.420	5542.660	-2.605	795.750	35.163	21.000
3.440	5558.480	1.828	723.667	401.452	19.000
3.460	5571.380	12.918	615.250	681.549	20.000
3.480	5583.240	28.257	541.167	825.564	19.000
3.500	5593.080	45.257	473.000	863.138	22.000
3.520	5602.200	62.409	408.833	847.905	19.000
3.540	5609.540	78.983	362.583	805.697	21.000
3.560	5616.800	94.566	334.083	756.698	19.000
3.580	5622.860	109.144	291.000	687.578	20.000
3.600	5628.580	122.092	277.333	623.981	21.000
3.620	5633.940	134.172	255.833	573.648	19.000
3.640	5638.880	145.033	246.500	519.698	20.000
3.660	5643.860	154.995	246.583	471.651	20.000
3.680	5648.780	163.952	249.750	431.157	20.000
3.700	5653.960	172.331	273.000	409.450	20.000
3.720	5659.740	180.237	301.250	370.288	20.000
3.740	5666.020	187.000	329.500	307.452	21.000
3.760	5672.960	192.438	366.500	232.684	20.000
3.780	5680.640	196.155	391.000	130.051	19.000
3.800	5688.740	197.633	446.833	31.355	21.000
3.820	5698.420	197.343	485.583	-76.800	19.000
3.840	5707.960	194.418	478.667	-214.531	19.000
3.860	5717.860	188.874	541.583	-330.809	23.000
3.880	5729.380	181.364	554.250	-417.701	19.000
3.900	5739.800	172.300	519.250	-479.521	19.000
3.920	5750.460	162.079	551.833	-565.651	20.000
3.940	5761.880	149.679	581.417	-650.765	20.000
3.960	5773.580	136.152	578.833	-716.140	19.000
3.980	5785.220	121.072	617.500	-771.233	22.000
4.000	5798.260	105.092	653.500	-872.595	20.000
4.020	5811.120	86.295	636.833	-958.154	19.000
4.040	5823.940	67.360	668.167	-927.942	20.000
4.060	5837.820	49.172	686.333	-921.531	19.000
4.080	5851.500	30.816	728.917	-868.660	22.000
4.100	5866.880	15.111	752.750	-700.717	19.000
4.120	5881.480	3.351	747.833	-451.975	20.000
4.140	5897.000	-2.376	803.167	-103.013	21.000
4.160	5912.980	-0.609	732.833	271.845	19.000
4.180	5926.120	8.150	634.750	592.118	19.000
4.200	5938.560	22.316	582.750	790.528	21.000
4.220	5949.300	38.920	498.500	849.809	20.000
4.240	5958.560	55.829	427.167	839.400	20.000
4.260	5966.480	72.296	369.833	803.349	20.000
4.280	5973.480	87.864	332.917	753.842	20.000
4.300	5979.900	102.396	315.167	696.909	21.000
4.320	5986.020	115.710	281.417	634.517	19.000
4.340	5991.160	127.805	244.917	577.139	19.000
4.360	5996.020	138.849	249.250	528.965	22.000
4.380	6001.120	148.994	248.083	485.614	20.000
4.400	6005.880	158.271	229.417	438.329	19.000
4.420	6010.500	166.633	253.083	411.036	21.000
4.440	6016.000	174.768	269.333	395.994	18.000
4.460	6021.340	182.323	297.917	353.595	21.000
4.480	6027.960	188.752	334.250	285.936	20.000
4.500	6034.680	193.642	359.083	201.012	20.000
4.520	6042.500	196.688	424.167	97.301	21.000
4.540	6051.480	197.572	454.167	7.553	19.000
4.560	6060.560	196.840	462.417	-110.756	19.000
4.580	6070.160	193.047	512.917	-249.123	21.000
4.600	6080.960	187.076	539.250	-347.185	20.000
4.620	6091.580	179.246	536.750	-435.219	21.000
4.640	6102.500	169.756	552.167	-508.527	20.000
4.660	6113.660	158.941	564.000	-576.187	20.000
4.680	6125.080	146.678	583.667	-650.511	20.000
4.700	6136.860	132.908	567.000	-726.105	18.000
4.720	6148.020	117.614	606.417	-806.269	22.000
4.740	6161.100	100.690	639.417	-883.195	19.000
4.760	6173.460	82.441	640.583	-937.209	20.000
4.780	6186.920	63.491	687.083	-943.810	20.000
4.800	6200.840	44.953	708.000	-914.232	20.000
4.820	6215.240	27.297	734.417	-830.260	21.000
4.840	6230.100	12.308	738.667	-658.255	18.000
4.860	6244.740	1.599	731.167	-387.806	20.000
4.880	6259.560	-2.651	776.500	-23.675	21.000
4.900	6275.440	0.701	756.583	348.200	20.000
4.920	6289.340	10.800	649.167	642.958	20.000
4.940	6301.400	25.637	547.167	812.298	20.000
4.960	6311.440	42.530	486.833	860.092	21.000
4.980	6320.920	59.591	432.750	841.241	20.000
5.000	6328.660	76.013	353.417	801.254	19.000
5.020	6335.300	91.596	322.750	758.666	20.000
5.040	6341.660	106.265	304.750	700.653	20.000
5.060	6347.460	119.533	277.417	625.314	21.000
5.080	6352.800	131.354	260.083	565.016	20.000
5.100	6357.840	142.230	233.500	523.316	18.000
5.120	6362.280	152.238	233.250	467.779	21.000
5.140	6367.260	161.013	248.500	423.667	20.000
5.160	6372.180	169.345	248.667	411.100	20.000
5.180	6377.400	177.403	288.583	388.441	21.000
5.200	6383.720	184.700	324.583	334.046	20.000
5.220	6390.320	190.625	347.250	258.707	20.000
5.240	6397.640	194.952	375.917	169.911	19.000
5.260	6405.420	197.328	414.500	62.455	20.000
5.280	6414.300	197.541	470.500	-16.375	20.000
5.300	6424.120	196.353	504.833	-161.279	21.000
5.320	6434.320	191.082	504.167	-309.293	19.000
5.340	6444.420	184.365	536.500	-379.745	21.000
5.360	6455.700	175.865	551.500	-466.827	19.000
5.380	6466.400	165.750	551.000	-542.357	20.000
5.400	6477.800	154.203	563.750	-611.794	19.000
5.420	6488.980	141.240	576.083	-688.848	20.000
5.440	6501.040	126.616	631.333	-771.677	21.000
5.460	6514.060	110.378	649.500	-854.760	21.000
5.480	6526.920	92.510	651.167	-928.704	20.000
5.500	6540.140	73.530	662.083	-951.236	19.000
5.520	6553.400	54.717	667.333	-936.320	20.000
5.540	6567.000	36.331	702.583	-889.479	20.000
5.560	6581.640	19.635	769.333	-765.520	20.000
5.580	6597.440	6.352	765.750	-541.278	20.000
5.600	6612.280	-1.386	775.917	-214.023	21.000
5.620	6628.340	-1.935	769.500	157.217	19.000
5.640	6642.620	4.707	678.583	499.451	20.000
5.660	6655.480	17.366	600.250	731.564	20.000
5.680	6666.540	33.147	500.000	829.626	20.000
5.700	6675.640	50.010	428.667	849.175	20.000
5.720	6683.900	66.751	396.833	812.298	20.000
5.740	6691.480	82.395	353.333	762.664	21.000
5.760	6698.020	97.278	305.917	722.424	19.000
5.780	6703.800	111.185	272.667	660.857	19.000
5.800	6709.040	123.692	257.667	596.561	20.000
5.820	6714.200	135.101	260.917	541.786	22.000
5.840	6719.380	145.429	241.750	498.626	19.000
5.860	6723.900	155.056	227.000	454.323	20.000
5.880	6728.620	163.663	241.667	419.922	20.000
5.900	6733.640	171.935	267.167	402.341	21.000
5.920	6739.300	179.673	286.083	369.780	18.000
5.940	6745.220	186.573	332.667	312.022	22.000
5.960	6752.600	192.027	380.250	235.540	20.000
5.980	6760.200	195.881	376.500	140.524	19.000
6.000	6767.880	197.602	421.667	40.748	20.000
6.020	6777.100	197.450	469.250	-68.993	19.000
6.040	6786.600	194.799	507.500	-183.494	22.000
6.060	6797.340	190.016	541.083	-320.337	20.000
6.080	6808.000	182.171	522.250	-423.794	19.000
6.100	6818.440	173.306	553.417	-481.616	21.000
6.120	6830.060	162.825	565.750	-562.985	19.000
6.140	6841.000	150.837	563.583	-631.216	20.000
6.160	6852.700	137.539	582.250	-707.064	19.000
6.180	6864.300	122.504	600.833	-793.574	21.000
6.200	6876.720	105.854	612.833	-871.707	19.000
6.220	6888.960	87.818	654.667	-918.739	21.000
6.240	6902.900	69.264	696.500	-944.889	20.000
6.260	6916.620	50.284	698.583	-932.702	20.000
6.280	6930.840	32.355	702.250	-860.028	20.000
6.300	6944.820	16.391	725.917	-709.476	20.000
6.320	6959.960	4.524	766.417	-475.396	20.000
6.340	6975.360	-2.087	791.250	-155.249	21.000
6.360	6991.220	-1.371	750.500	222.401	19.000
6.380	7005.000	6.489	639.917	545.848	20.000
6.400	7016.960	19.757	564.417	755.809	19.000
6.420	7027.700	35.935	510.250	840.035	21.000
6.440	7037.360	52.797	453.500	838.004	22.000
6.460	7045.740	69.203	375.250	801.699	19.000
6.480	7052.440	84.787	304.500	758.666	18.000
6.500	7058.280	99.441	305.750	696.845	22.000
6.520	7064.600	112.617	286.667	628.043	20.000
6.540	7069.640	124.606	244.333	567.936	20.000
6.560	7074.520	135.375	234.167	513.351	19.000
6.580	7079.000	145.201	216.083	469.176	19.000
6.600	7083.280	154.173	221.500	428.427	21.000
6.620	7087.860	162.383	221.417	393.963	20.000
6.640	7092.240	170.015	240.583	374.985	21.000
6.660	7097.540	177.388	269.417	358.610	19.000
6.680	7102.980	184.212	286.667	315.640	20.000
6.700	7109.120	189.894	326.667	254.962	20.000
6.720	7116.080	194.312	371.750	181.018	20.000
6.740	7123.940	196.993	402.583	80.671	20.000
6.760	7132.320	197.556	463.750	-7.426	20.000
6.780	7142.420	196.490	513.167	-135.827	21.000
6.800	7152.620	192.073	520.167	-274.955	20.000
6.820	7163.180	185.720	521.667	-368.701	19.000
6.840	7173.560	177.388	539.417	-457.180	20.000
6.860	7184.740	167.502	552.083	-534.106	20.000
6.880	7195.640	156.047	561.750	-608.113	20.000
6.900	7207.320	143.175	592.833	-682.247	19.000
6.920	7219.380	128.719	628.583	-763.997	22.000
6.940	7232.380	112.617	649.583	-846.319	20.000
6.960	7245.260	94.947	648.750	-918.167	20.000
6.980	7258.460	76.119	678.833	-953.394	20.000
7.000	7272.320	57.093	685.667	-945.269	20.000
7.020	7285.940	38.600	705.333	-896.587	20.000
7.040	7300.540	21.661	724.833	-784.181	19.000
7.060	7314.940	7.845	744.917	-576.060	20.000
7.080	7330.360	-0.746	775.750	-265.498	20.000
7.100	7345.720	-2.407	763.583	106.504	20.000
7.120	7360.600	3.366	704.417	456.608	21.000
7.140	7373.600	15.187	592.167	696.718	19.000
7.160	7384.340	30.420	491.083	805.824	19.000
7.180	7393.520	46.811	442.500	822.581	21.000
7.200	7402.100	62.958	401.833	783.863	21.000
7.220	7409.480	78.069	332.833	738.038	19.000
7.240	7415.580	92.358	297.667	663.650	21.000
7.260	7421.480	104.879	276.833	646.449	19.000
7.280	7426.660	118.162	254.000	619.093	20.000
7.300	7431.680	129.358	237.000	529.981	19.000
7.320	7436.220	139.610	233.667	497.737	21.000
7.340	7441.080	149.268	241.417	462.194	21.000
7.360	7445.780	157.981	226.333	394.661	19.000
7.380	7450.220	165.400	225.500	398.596	20.000
7.400	7455.020	173.945	267.917	405.959	21.000
7.420	7460.880	181.318	294.167	350.676	19.000
7.440	7466.760	187.899	313.083	291.838	20.000
7.460	7473.540	192.865	361.917	211.421	20.000
7.480	7481.160	196.277	388.833	119.642	19.000
7.500	7489.220	197.602	445.417	22.088	22.000
7.520	7498.880	197.084	482.750	-86.193	19.000
7.540	7508.400	194.022	494.667	-222.021	20.000
7.560	7518.740	188.325	526.750	-334.046	20.000
7.580	7529.380	180.815	541.083	-419.161	20.000
7.600	7540.300	171.599	539.000	-499.451	20.000
7.620	7551.020	160.814	550.917	-590.151	20.000
7.640	7562.500	148.186	596.750	-640.229	21.000
7.660	7574.760	135.147	614.167	-704.081	20.000
7.680	7587.000	119.914	622.167	-786.656	20.000
7.700	7599.620	103.615	623.583	-883.195	19.000
7.720	7612.060	84.726	646.250	-962.597	21.000
7.740	7625.580	65.608	693.250	-950.601	20.000
7.760	7639.580	46.887	695.917	-921.849	18.000
7.780	7653.400	29.049	692.500	-849.429	20.000
7.800	7667.600	13.496	754.083	-684.024	21.000
7.820	7683.540	2.346	816.667	-414.972	21.000
7.840	7699.720	-2.574	775.917	-59.599	19.000
7.860	7714.360	0.076	704.583	316.021	20.000
7.880	7727.940	9.642	646.667	623.917	20.000
7.900	7740.200	24.236	586.583	802.206	21.000
7.920	7751.240	40.961	494.000	857.553	19.000
7.940	7759.980	58.099	400.833	848.857	20.000
7.960	7767.620	74.733	376.917	816.805	21.000
7.980	7775.040	90.682	341.250	774.977	19.000
8.000	7781.260	105.595	301.083	708.968	20.000
8.020	7787.200	119.000	283.583	635.786	20.000
8.040	7792.640	131.125	271.750	581.900	20.000
8.060	7798.020	142.337	246.500	538.866	19.000
8.080	7802.600	152.634	239.333	484.028	22.000
8.100	7807.720	161.744	256.250	435.980	20.000
8.120	7812.800	170.213	256.333	416.368	19.000
8.140	7818.120	178.332	284.583	383.807	20.000
8.160	7824.280	185.416	331.167	325.732	21.000
8.180	7831.260	191.250	352.667	252.296	19.000
8.200	7838.440	195.378	384.833	157.534	20.000
8.220	7846.760	197.480	440.333	51.538	21.000
8.240	7855.920	197.450	466.583	-45.826	19.000
8.260	7865.420	195.454	495.417	-182.605	20.000
8.280	7875.740	190.168	527.250	-316.528	20.000
8.300	7886.420	183.055	541.583	-399.929	20.000
8.320	7897.380	174.220	555.417	-481.425	20.000
8.340	7908.560	163.846	552.250	-554.734	19.000
8.360	7919.560	152.040	568.750	-626.519	20.000
8.380	7931.320	138.757	582.167	-702.875	20.000
8.400	7942.960	123.875	615.917	-789.703	21.000
8.420	7956.040	107.210	674.833	-870.437	21.000
8.440	7969.500	89.189	633.083	-932.194	19.000
8.460	7981.680	70.178	661.583	-953.013	21.000
8.480	7996.140	51.350	728.083	-931.369	20.000
8.500	8010.380	33.223	699.917	-869.676	19.000
8.520	8024.360	17.076	724.583	-728.326	20.000
8.540	8039.460	4.707	767.917	-490.946	20.000
8.560	8054.880	-1.980	773.750	-158.486	20.000
8.580	8070.240	-1.401	760.667	211.992	21.000
8.600	8084.900	6.246	671.167	540.136	18.000
8.620	8097.060	19.635	587.417	787.735	21.000
8.640	8108.360	36.681	495.000	848.604	19.000
8.660	8116.940	53.026	412.333	826.960	21.000
8.680	8125.140	69.706	385.417	813.631	19.000
8.700	8132.340	85.366	347.417	761.395	21.000
8.720	8139.060	100.126	314.833	709.920	21.000
8.740	8144.920	113.653	277.083	640.293	20.000
8.760	8150.220	125.626	254.250	542.103	20.000
8.780	8155.120	135.695	233.750	516.842	19.000
8.800	8159.640	146.358	224.917	500.086	21.000
8.820	8164.180	155.468	225.750	431.474	20.000
8.840	8168.720	163.785	233.583	399.358	20.000
8.860	8173.580	171.554	249.417	386.600	19.000
8.880	8178.780	179.201	278.250	366.099	20.000
8.900	8184.800	186.010	325.583	312.276	21.000
8.920	8191.700	191.570	348.917	242.268	19.000
8.940	8198.800	195.561	381.167	148.839	20.000
8.960	8207.040	197.465	436.250	47.032	21.000
8.980	8216.040	197.450	443.500	-47.603	18.000
9.000	8224.920	195.393	483.583	-176.385	21.000
9.020	8235.400	190.412	529.083	-303.390	20.000
9.040	8245.860	183.496	528.333	-383.554	20.000
9.060	8256.580	175.088	544.500	-467.462	21.000
9.080	8267.560	164.851	541.417	-542.230	18.000
9.100	8278.320	153.442	554.500	-608.176	20.000
9.120	8289.840	140.463	584.667	-687.261	21.000
9.140	8301.740	125.946	621.083	-766.726	21.000
9.160	8314.600	109.830	647.250	-839.971	20.000
9.180	8327.340	92.388	607.333	-911.566	18.000
9.200	8339.300	73.590	656.083	-947.300	22.000
9.220	8353.580	54.808	699.000	-932.893	19.000
9.240	8367.060	36.544	696.500	-884.274	20.000
9.260	8381.660	19.909	746.000	-763.426	20.000
9.280	8396.780	6.626	768.250	-546.673	20.000
9.300	8412.300	-1.310	781.500	-224.115	21.000
9.320	8427.800	-2.011	752.667	152.012	19.000
9.340	8442.260	4.600	707.750	502.434	21.000
9.360	8455.820	17.427	609.500	746.606	19.000
9.380	8466.600	33.604	504.083	849.111	20.000
9.400	8476.240	50.832	450.500	870.374	20.000
9.420	8484.640	68.061	393.500	843.208	21.000
9.440	8492.020	84.193	341.167	742.163	19.000
9.460	8498.400	98.116	308.833	725.915	20.000
9.480	8504.440	113.151	287.083	694.814	20.000
9.500	8509.880	125.504	260.750	577.711	20.000
9.520	8514.960	136.548	254.417	527.188	21.000
9.540	8519.980	146.648	228.833	480.156	19.000
9.560	8524.180	155.772	213.917	433.124	20.000
9.580	8528.720	164.059	231.500	400.373	20.000
9.600	8533.540	171.889	264.417	387.298	21.000
9.620	8539.300	179.490	298.000	363.751	20.000
9.640	8545.360	186.269	309.750	311.133	20.000
9.660	8551.760	191.798	335.000	238.396	19.000
9.680	8558.880	195.683	378.750	146.427	19.000
9.700	8567.060	197.587	457.667	43.731	22.000
9.720	8576.860	197.435	469.250	-52.744	19.000
9.740	8585.760	195.317	470.000	-181.907	20.000
9.760	8595.860	190.184	518.333	-307.643	21.000
9.780	8606.260	183.237	511.333	-392.884	18.000
9.800	8616.460	174.631	539.583	-447.278	21.000
9.820	8627.840	165.186	569.250	-537.787	21.000
9.840	8639.000	153.122	546.250	-628.233	19.000
9.860	8649.960	140.235	586.833	-680.279	21.000
9.880	8662.320	125.794	587.750	-760.443	18.000
9.900	8673.560	109.830	606.417	-836.290	21.000
9.920	8686.740	92.388	660.500	-909.662	21.000
9.940	8699.780	73.697	668.333	-939.684	20.000
9.960	8713.560	55.052	699.500	-932.893	20.000
9.980	8727.720	36.666	720.000	-888.336	20.000
10.000	8742.380	20.031	746.000	-762.791	20.000
10.020	8757.540	6.733	772.083	-551.497	20.000
10.040	8773.080	-1.341	763.083	-226.083	20.000
10.060	8788.020	-1.950	756.083	159.756	20.000
10.080	8803.080	4.829	711.417	509.035	20.000
10.100	8816.080	17.746	587.750	751.938	19.000
10.120	8826.820	34.061	517.750	858.378	21.000
10.140	8836.880	51.442	464.083	866.121	20.000
10.160	8845.220	68.381	367.417	827.595	19.000
10.180	8851.900	84.436	337.333	776.755	21.000
10.200	8858.800	99.395	318.833	719.123	19.000
10.220	8864.560	113.135	276.250	649.686	20.000
10.240	8869.980	125.383	262.333	579.297	20.000
10.260	8875.040	136.411	241.083	528.330	20.000
10.280	8879.680	146.572	229.917	486.630	19.000
10.300	8884.300	155.849	229.000	436.107	20.000
10.320	8888.880	164.090	231.917	397.961	20.000
10.340	8893.680	171.889	253.667	384.379	21.000
10.360	8899.060	179.383	280.667	354.865	20.000
10.380	8904.860	185.949	295.167	303.136	20.000
10.400	8910.960	191.402	327.333	236.175	20.000
10.420	8918.040	195.287	373.833	152.012	20.000
10.440	8925.940	197.404	426.667	53.950	21.000
10.460	8934.980	197.480	455.083	-29.831	19.000
10.480	8944.080	196.003	470.750	-155.313	20.000
10.500	8953.940	191.235	519.750	-288.792	21.000
10.520	8964.640	184.715	521.833	-369.653	20.000
10.540	8974.720	176.489	505.417	-450.706	18.000
10.560	8985.080	166.755	536.000	-519.190	20.000
10.580	8996.160	155.727	562.417	-587.358	21.000
10.600	9007.520	143.220	576.917	-663.586	20.000
10.620	9019.260	129.176	599.750	-740.132	21.000
10.640	9031.420	113.608	602.250	-819.153	19.000
10.660	9043.420	96.455	615.167	-894.810	20.000
10.680	9056.260	78.054	677.583	-930.544	21.000
10.700	9070.340	59.500	700.833	-924.451	20.000
10.720	9084.160	41.297	701.500	-891.002	20.000
10.740	9098.420	24.266	707.083	-796.113	20.000
10.760	9112.540	10.023	733.167	-613.191	20.000
10.780	9127.680	0.381	741.167	-327.319	18.000
10.800	9142.280	-2.620	784.000	33.386	23.000
10.820	9158.460	1.676	717.000	388.060	18.000
10.840	9170.620	12.369	588.083	657.430	20.000
10.860	9182.320	27.160	535.833	793.638	20.000
10.880	9192.020	43.475	466.583	830.832	21.000
10.900	9201.060	60.048	415.083	820.042	20.000
10.920	9208.560	76.073	342.667	779.167	19.000
10.940	9215.020	91.139	321.917	729.532	20.000
10.960	9221.460	105.199	302.250	672.091	21.000
10.980	9227.000	117.964	257.333	602.845	19.000
11.000	9231.860	129.374	233.417	545.150	20.000
11.020	9236.460	139.854	230.333	502.688	20.000
11.040	9241.120	149.481	235.167	457.497	21.000
11.060	9245.800	158.179	223.167	414.527	19.000
11.080	9250.140	166.176	227.750	392.947	20.000
11.100	9255.060	173.930	261.500	377.778	21.000
11.120	9260.540	181.181	278.333	344.011	19.000
11.140	9266.240	187.548	303.667	287.078	19.000
11.160	9272.780	192.560	346.750	215.610	21.000
11.180	9280.100	196.064	385.083	126.053	20.000
11.200	9288.200	197.556	427.333	30.847	20.000
11.220	9297.180	197.267	470.333	-65.375	21.000
11.240	9306.860	194.784	481.083	-193.776	19.000
11.260	9316.500	189.574	511.417	-311.324	21.000
11.280	9327.300	182.521	540.333	-393.963	20.000
11.300	9337.960	173.884	537.417	-468.414	20.000
11.320	9348.860	163.815	554.917	-538.613	20.000
11.340	9360.000	152.345	534.917	-608.113	19.000
11.360	9370.440	139.473	551.083	-680.533	20.000
11.380	9382.220	125.093	602.000	-759.300	20.000
11.400	9394.360	109.129	616.500	-833.307	20.000
11.420	9406.880	91.824	633.917	-900.967	20.000
11.440	9419.760	73.316	662.667	-932.131	20.000
11.460	9433.280	54.823	665.167	-918.866	20.000
11.480	9446.520	36.833	698.083	-869.612	20.000
11.500	9461.320	20.488	766.083	-751.239	22.000
11.520	9476.540	7.342	697.583	-546.610	17.000
11.540	9489.580	-0.807	711.250	-249.630	21.000
11.560	9505.180	-2.346	772.250	95.143	20.000
11.580	9519.740	2.894	686.750	426.015	20.000
11.600	9532.480	14.121	582.833	664.348	20.000
11.620	9543.160	28.684	501.333	774.025	20.000
11.640	9552.660	44.526	441.917	800.175	20.000
11.660	9560.860	60.368	382.000	780.182	20.000
11.680	9568.020	75.556	335.250	732.896	20.000
11.700	9574.360	89.677	303.500	689.673	21.000
11.720	9580.200	103.097	277.167	639.467	19.000
11.740	9585.460	115.177	252.250	572.887	21.000
11.760	9590.300	126.083	226.917	520.650	18.000
11.780	9594.620	136.076	216.667	480.727	21.000
11.800	9599.020	145.338	215.583	444.485	20.000
11.820	9603.220	153.838	206.917	402.531	20.000
11.840	9607.360	161.500	209.833	369.653	21.000
11.860	9611.680	168.766	222.583	363.179	19.000
11.880	9616.340	176.047	246.167	361.466	19.000
11.900	9621.640	183.055	291.583	329.921	21.000
11.920	9627.960	189.056	324.917	267.593	20.000
11.940	9634.660	193.657	365.167	191.935	20.000
11.960	9642.520	196.642	397.250	100.982	20.000
11.980	9650.480	197.678	412.833	11.107	20.000
12.000	9659.180	196.993	461.083	-94.444	20.000
12.020	9668.860	193.794	495.917	-222.274	20.000
12.040	9678.900	188.234	509.667	-324.145	20.000
12.060	9689.220	180.952	522.917	-406.086	20.000
12.080	9699.740	172.056	517.333	-478.950	19.000
12.100	9710.080	161.835	549.000	-544.642	22.000
12.120	9721.620	150.243	559.833	-616.555	19.000
12.140	9732.500	137.158	577.750	-690.371	21.000
12.160	9744.740	122.610	599.000	-767.678	19.000
12.180	9756.380	106.463	599.417	-844.541	20.000
12.200	9768.900	88.930	640.000	-907.822	20.000
12.220	9781.920	70.407	664.250	-928.831	21.000
12.240	9795.460	52.036	690.917	-911.122	20.000
12.260	9809.440	34.228	689.083	-858.695	19.000
12.280	9823.240	18.173	733.917	-730.929	21.000
12.300	9838.780	5.591	780.167	-510.368	20.000
