%Time (s)	Wheel Position (deg)	Slide position (mm)	Wheel Speed (deg/s)	Slide Speed (mm/s)	Actual sample time (ms)	%2/16/20175:33 PM
0.000	10751.960	195.728	1166.750	-486.630	21.000
0.020	10774.300	182.034	1078.167	-863.773	19.000
0.040	10795.460	162.048	1073.500	-1121.020	20.000
0.060	10817.480	137.630	1108.667	-1317.398	20.000
0.080	10839.760	109.540	1125.833	-1497.655	20.000
0.100	10862.620	78.145	1166.667	-1625.295	20.000
0.120	10886.380	45.608	1187.000	-1604.857	20.000
0.140	10910.440	16.238	1276.083	-1230.380	19.000
0.160	10937.440	-0.548	1391.250	-339.886	20.000
0.180	10964.840	4.189	1264.250	826.008	20.000
0.200	10987.680	30.786	1095.417	1690.289	21.000
0.220	11008.940	68.670	990.167	2026.683	21.000
0.240	11027.340	109.632	869.667	2035.443	19.000
0.260	11044.480	148.552	885.583	1849.346	20.000
0.280	11063.280	181.333	985.917	1294.422	20.000
0.300	11083.920	198.440	1082.000	401.325	20.000
0.320	11106.240	198.074	1125.167	-351.057	20.000
0.340	11128.480	186.162	1082.667	-795.986	19.000
0.360	11149.720	167.365	1081.083	-1071.195	21.000
0.380	11171.920	143.799	1116.083	-1284.076	19.000
0.400	11194.300	116.258	1126.500	-1464.396	20.000
0.420	11217.260	85.487	1205.417	-1620.725	22.000
0.440	11242.080	52.325	1169.833	-1659.188	18.000
0.460	11264.860	21.311	1313.583	-1360.177	22.000
0.480	11294.340	1.051	1410.250	-543.119	19.000
0.500	11320.080	1.737	1277.500	656.795	20.000
0.520	11345.380	26.079	1166.667	1635.387	20.000
0.540	11366.580	63.902	1019.333	2058.229	21.000
0.560	11386.340	105.884	897.667	2100.690	18.000
0.580	11403.120	146.206	878.250	1921.513	20.000
0.600	11422.260	180.343	999.250	1356.687	21.000
0.620	11443.160	198.409	1126.000	420.874	21.000
0.640	11466.840	197.907	1171.250	-366.290	20.000
0.660	11489.520	185.705	1130.417	-811.981	20.000
0.680	11512.040	166.618	1093.417	-1079.193	19.000
0.700	11533.460	142.977	1094.750	-1293.343	20.000
0.720	11555.940	115.085	1109.833	-1487.627	20.000
0.740	11577.980	83.842	1140.417	-1637.100	20.000
0.760	11601.840	50.573	1222.917	-1657.474	20.000
0.780	11626.960	19.788	1312.833	-1332.822	20.000
0.800	11654.280	0.442	1409.000	-476.348	20.000
0.820	11682.420	2.666	1350.417	722.043	20.000
0.840	11707.360	27.922	1119.167	1672.263	19.000
0.860	11727.500	66.340	952.833	2077.587	21.000
0.880	11746.320	108.489	941.417	2099.802	21.000
0.900	11765.420	148.582	959.167	1895.426	20.000
0.920	11784.780	181.912	975.250	1303.752	19.000
0.940	11804.980	198.821	1115.167	369.907	21.000
0.960	11828.740	197.495	1119.667	-410.402	19.000
0.980	11849.460	184.471	1063.083	-824.358	20.000
1.000	11871.900	165.613	1155.833	-1079.447	21.000
1.020	11895.120	141.606	1115.000	-1306.926	19.000
1.040	11916.620	113.638	1101.500	-1490.673	20.000
1.060	11939.620	82.334	1178.500	-1635.767	20.000
1.080	11963.540	49.203	1191.000	-1647.763	19.000
1.100	11987.640	18.706	1282.833	-1307.433	20.000
1.120	12014.940	0.076	1409.667	-435.790	21.000
1.140	12042.940	3.108	1336.000	760.823	20.000
1.160	12067.620	29.004	1135.583	1691.685	20.000
1.180	12088.440	67.528	945.917	2072.509	20.000
1.200	12106.400	109.434	940.083	2082.665	21.000
1.220	12126.160	149.146	923.833	1875.242	18.000
1.240	12143.760	182.110	977.583	1290.550	22.000
1.260	12165.600	198.882	1102.917	361.910	19.000
1.280	12187.300	197.587	1104.667	-358.673	20.000
1.300	12209.780	186.101	1123.333	-818.074	20.000
1.320	12232.080	165.948	1109.750	-1119.814	21.000
1.340	12254.240	142.108	1115.167	-1289.852	20.000
1.360	12276.640	114.400	1107.167	-1478.868	19.000
1.380	12298.620	83.279	1108.333	-1628.722	19.000
1.400	12321.400	50.238	1181.667	-1644.336	20.000
1.420	12346.320	19.711	1341.583	-1321.333	21.000
1.440	12374.640	0.503	1433.750	-479.140	21.000
1.460	12402.560	2.513	1328.500	713.030	20.000
1.480	12427.220	27.648	1134.083	1661.790	20.000
1.500	12448.120	65.746	983.000	2059.307	20.000
1.520	12466.940	107.530	891.667	2081.078	19.000
1.540	12484.400	147.333	899.833	1891.999	19.000
1.560	12503.460	180.892	1001.333	1330.791	21.000
1.580	12524.320	198.562	1063.000	408.942	19.000
1.600	12545.980	197.968	1139.917	-366.226	22.000
1.620	12569.440	185.797	1125.333	-811.981	19.000
1.640	12590.840	166.664	1086.750	-1082.557	19.000
1.660	12613.120	143.007	1091.500	-1284.203	21.000
1.680	12634.600	115.466	1104.250	-1471.949	20.000
1.700	12657.560	84.421	1169.750	-1630.626	20.000
1.720	12681.340	51.244	1212.833	-1650.048	20.000
1.740	12706.300	20.580	1308.667	-1340.755	19.000
1.760	12733.440	0.746	1365.333	-510.305	20.000
1.780	12760.280	2.224	1317.000	686.499	20.000
1.800	12785.500	26.871	1156.750	1644.590	20.000
1.820	12806.700	64.816	1041.083	2061.275	23.000
1.840	12827.180	106.783	915.833	2092.820	17.000
1.860	12843.860	146.815	872.250	1903.170	21.000
1.880	12862.980	180.587	1000.167	1342.723	19.000
1.900	12883.760	198.486	1095.167	414.146	20.000
1.920	12906.340	197.892	1107.833	-364.258	20.000
1.940	12927.900	185.857	1093.583	-801.445	21.000
1.960	12950.220	166.984	1113.667	-1069.291	20.000
1.980	12972.340	143.571	1106.083	-1273.794	20.000
2.000	12994.580	116.228	1121.583	-1458.494	20.000
2.020	13017.320	85.518	1159.167	-1613.235	20.000
2.040	13040.880	52.599	1170.583	-1649.921	19.000
2.060	13064.540	21.722	1259.500	-1341.644	20.000
2.080	13091.400	1.843	1390.250	-558.860	21.000
2.100	13119.200	1.462	1348.417	594.149	20.000
2.120	13144.500	24.647	1166.417	1581.627	19.000
2.140	13165.720	61.556	957.417	2021.923	21.000
2.160	13183.620	103.005	905.583	2081.268	20.000
2.180	13202.380	143.068	914.000	1908.501	20.000
2.200	13220.440	177.236	953.250	1410.573	19.000
2.220	13240.920	197.358	1077.417	531.504	21.000
2.240	13263.160	198.790	1123.917	-283.016	20.000
2.260	13285.560	187.944	1117.500	-754.794	20.000
2.280	13307.820	169.848	1114.333	-1037.492	20.000
2.300	13330.000	146.968	1075.250	-1252.912	19.000
2.320	13351.240	119.975	1122.250	-1439.262	22.000
2.340	13374.860	89.661	1154.667	-1598.637	19.000
2.360	13397.360	56.819	1160.417	-1655.443	20.000
2.380	13421.840	25.393	1284.417	-1415.651	20.000
2.400	13448.580	3.138	1385.833	-696.401	20.000
2.420	13476.360	-0.030	1320.917	452.102	19.000
2.440	13500.920	20.565	1188.083	1484.961	22.000
2.460	13523.540	56.301	984.917	1986.189	18.000
2.480	13540.880	97.400	877.750	2086.282	21.000
2.500	13559.660	137.965	964.833	1943.854	21.000
2.520	13579.220	173.168	967.917	1506.604	19.000
2.540	13598.700	195.926	1044.750	661.365	21.000
2.560	13620.900	199.506	1099.250	-196.188	19.000
2.580	13642.360	189.940	1087.833	-713.157	20.000
2.600	13664.680	172.361	1148.833	-1016.547	21.000
2.620	13687.860	149.923	1114.333	-1232.030	18.000
2.640	13709.180	123.341	1053.167	-1416.032	20.000
2.660	13730.920	93.470	1195.167	-1586.768	22.000
2.680	13756.400	60.582	1190.000	-1663.948	18.000
2.700	13778.780	28.668	1242.667	-1483.945	22.000
2.720	13806.460	4.280	1384.250	-803.349	18.000
2.740	13833.160	-0.792	1334.750	347.566	21.000
2.760	13859.220	17.701	1189.833	1407.019	19.000
2.780	13880.520	52.615	998.667	1974.066	20.000
2.800	13899.780	93.850	928.833	2096.628	20.000
2.820	13917.960	134.629	879.750	1966.386	20.000
2.840	13935.820	170.625	999.167	1567.409	22.000
2.860	13957.700	194.875	1058.833	733.214	18.000
2.880	13977.900	199.643	1059.833	-148.712	21.000
2.900	14000.480	190.808	1162.583	-682.120	21.000
2.920	14023.700	173.778	1114.083	-995.538	19.000
2.940	14045.080	151.659	1076.833	-1216.734	20.000
2.960	14067.320	125.383	1156.750	-1403.020	21.000
2.980	14091.000	95.663	1155.333	-1591.401	19.000
3.000	14113.440	62.531	1126.250	-1665.154	19.000
3.020	14136.760	30.786	1239.083	-1480.962	21.000
3.040	14163.100	6.002	1372.000	-869.422	20.000
3.060	14190.900	-1.142	1372.833	244.934	19.000
3.080	14217.280	15.766	1256.833	1349.007	22.000
3.100	14240.720	50.116	1060.667	1997.995	20.000
3.120	14260.020	92.312	926.000	2081.141	20.000
3.140	14278.260	131.704	866.417	1955.469	19.000
3.160	14295.360	168.995	918.333	1637.545	20.000
3.180	14315.500	194.266	1064.083	774.597	20.000
3.200	14337.540	199.796	1129.667	-91.461	20.000
3.220	14360.320	192.210	1139.083	-673.869	20.000
3.240	14382.800	174.494	1091.833	-980.432	19.000
3.260	14404.200	153.579	1087.333	-1217.559	21.000
3.280	14426.540	126.053	1127.917	-1425.806	20.000
3.300	14449.280	96.897	1152.667	-1582.960	20.000
3.320	14472.740	63.232	1186.667	-1699.048	19.000
3.340	14497.160	30.923	1308.500	-1498.099	22.000
3.360	14524.780	6.032	1375.000	-872.849	19.000
3.380	14551.560	-1.158	1345.667	254.898	21.000
3.400	14577.940	16.071	1205.083	1353.132	19.000
3.420	14599.480	50.056	1006.500	1938.459	20.000
3.440	14618.920	90.987	958.167	2126.206	21.000
3.460	14637.840	132.938	883.583	1994.694	18.000
3.480	14654.860	168.842	903.833	1587.720	20.000
3.500	14674.940	194.175	1124.333	787.862	22.000
3.520	14698.800	199.826	1123.250	-107.710	19.000
3.540	14719.520	191.722	1065.333	-654.066	20.000
3.560	14741.920	175.073	1121.250	-982.781	20.000
3.580	14764.220	153.122	1135.833	-1212.608	21.000
3.600	14787.300	126.891	1147.750	-1400.735	20.000
3.620	14809.960	97.293	1121.583	-1572.297	19.000
3.640	14832.380	64.618	1129.417	-1664.266	19.000
3.660	14855.680	32.294	1237.917	-1532.247	21.000
3.680	14882.000	6.322	1375.833	-911.313	20.000
3.700	14909.820	-1.341	1350.083	198.727	19.000
3.720	14935.300	14.258	1206.250	1303.752	21.000
3.740	14958.060	48.090	1078.833	1938.650	21.000
3.760	14978.420	88.869	930.417	2102.658	19.000
3.780	14995.860	130.272	881.083	2001.930	20.000
3.800	15014.400	167.075	961.250	1637.354	20.000
3.820	15034.440	193.276	1052.083	836.608	20.000
3.840	15056.360	199.933	1124.083	-67.787	20.000
3.860	15079.040	192.347	1134.000	-637.881	20.000
3.880	15101.420	175.910	1083.917	-972.689	20.000
3.900	15122.760	154.188	1116.250	-1203.088	21.000
3.920	15145.980	128.109	1122.167	-1392.928	19.000
3.940	15167.620	98.679	1110.167	-1563.665	20.000
3.960	15190.980	66.142	1230.000	-1664.139	21.000
3.980	15216.320	33.726	1223.333	-1524.694	18.000
4.000	15240.380	7.875	1327.083	-953.140	21.000
4.020	15269.220	-1.523	1422.250	114.184	21.000
4.040	15295.680	12.902	1202.833	1274.492	19.000
4.060	15317.380	46.537	1021.833	1915.673	20.000
4.080	15336.980	86.478	905.833	2061.275	19.000
4.100	15354.380	127.317	927.417	1992.981	22.000
4.120	15374.280	164.440	973.667	1679.943	20.000
4.140	15393.200	191.920	977.917	912.772	19.000
4.160	15413.860	200.116	1082.333	1.079	19.000
4.180	15436.320	193.657	1159.917	-589.199	21.000
4.200	15459.480	178.073	1081.750	-936.955	20.000
4.220	15479.780	156.991	1047.750	-1169.004	20.000
4.240	15501.920	131.659	1120.333	-1355.988	20.000
4.260	15524.380	102.899	1134.250	-1536.880	20.000
4.280	15547.400	70.772	1175.083	-1634.625	19.000
4.300	15571.400	38.753	1209.000	-1563.665	20.000
4.320	15596.060	10.800	1301.833	-1088.650	20.000
4.340	15623.500	-1.599	1425.500	-59.345	22.000
4.360	15651.760	9.231	1304.417	1112.070	20.000
4.380	15674.880	40.444	1039.083	1854.805	19.000
4.400	15694.040	80.247	917.833	2071.240	19.000
4.420	15712.360	121.376	926.083	2024.716	22.000
4.440	15731.320	159.596	961.250	1765.311	20.000
4.460	15750.860	189.300	994.000	1039.968	20.000
4.480	15771.340	199.963	1086.583	93.238	20.000
4.500	15793.960	194.723	1105.500	-524.014	19.000
4.520	15815.340	180.602	1084.583	-882.180	20.000
4.540	15837.540	160.175	1114.833	-1143.869	20.000
4.560	15859.680	135.299	1082.833	-1338.217	19.000
4.580	15881.120	106.829	1104.167	-1518.283	20.000
4.600	15904.100	75.007	1168.833	-1646.303	20.000
4.620	15927.900	42.226	1228.167	-1597.177	21.000
4.640	15953.400	13.588	1327.667	-1162.847	20.000
4.660	15980.760	-1.203	1401.583	-203.804	20.000
4.680	16008.340	6.657	1268.083	973.895	19.000
4.700	16031.040	35.691	1058.000	1787.526	21.000
4.720	16051.300	75.007	984.667	2077.206	21.000
4.740	16070.520	116.593	901.250	2049.850	19.000
4.760	16087.860	155.346	902.333	1808.598	20.000
4.780	16107.220	186.436	1018.000	1146.154	20.000
4.800	16128.340	199.689	1075.333	213.642	19.000
4.820	16150.040	196.262	1103.083	-468.795	20.000
4.840	16172.340	182.674	1113.667	-859.838	20.000
4.860	16194.480	162.825	1100.583	-1112.896	21.000
4.880	16216.580	138.559	1142.750	-1314.034	20.000
4.900	16239.820	110.439	1098.583	-1500.511	19.000
4.920	16260.800	78.952	1104.083	-1636.466	21.000
4.940	16284.580	46.095	1224.750	-1617.551	20.000
4.960	16309.680	16.558	1307.167	-1241.868	19.000
4.980	16336.920	-0.503	1436.250	-348.010	21.000
5.000	16365.800	4.220	1311.750	824.358	20.000
5.020	16388.840	30.908	1104.333	1724.753	21.000
5.040	16410.221	69.996	948.167	2083.553	18.000
5.060	16427.240	111.764	854.500	2065.972	21.000
5.080	16445.439	151.020	961.500	1845.284	20.000
5.100	16465.520	183.268	1003.917	1246.946	20.000
5.120	16485.699	199.156	1072.750	338.997	20.000
5.140	16508.381	197.587	1136.333	-420.811	20.000
5.160	16530.859	184.212	1153.833	-851.904	21.000
5.180	16554.080	164.714	1082.333	-1099.059	18.000
5.200	16574.381	140.631	1053.000	-1304.831	21.000
5.220	16596.779	112.709	1139.000	-1493.593	20.000
5.240	16619.740	81.329	1172.167	-1621.931	19.000
5.260	16643.600	48.761	1183.333	-1631.007	20.000
5.280	16667.619	18.310	1308.333	-1299.944	21.000
5.300	16695.820	0.000	1432.250	-420.049	20.000
5.320	16723.500	3.229	1285.750	768.694	20.000
5.340	16746.900	28.927	1092.167	1615.266	19.000
5.360	16767.680	65.243	1000.500	2047.375	22.000
5.380	16787.141	108.444	931.000	2123.984	20.000
5.400	16805.301	147.988	922.917	1867.626	20.000
5.420	16824.420	181.135	971.250	1311.876	19.000
5.440	16844.420	198.547	1068.833	406.847	21.000
5.460	16867.000	198.059	1140.167	-366.163	20.000
5.480	16889.420	185.736	1089.833	-819.026	19.000
5.500	16910.779	166.527	1087.000	-1084.207	20.000
5.520	16933.100	142.855	1121.417	-1284.140	20.000
5.540	16955.561	115.222	1132.333	-1496.386	20.000
5.560	16978.520	83.492	1172.250	-1638.243	21.000
5.580	17002.381	50.756	1185.333	-1628.786	19.000
5.600	17026.320	20.306	1274.667	-1332.441	19.000
5.620	17053.480	0.640	1406.583	-500.213	21.000
5.640	17081.400	2.346	1310.417	695.956	19.000
5.660	17105.439	27.130	1152.750	1650.937	21.000
5.680	17127.500	65.197	995.333	2065.464	19.000
5.700	17145.619	107.225	887.833	2097.961	20.000
5.720	17163.961	147.394	957.417	1909.263	22.000
5.740	17184.039	181.196	1032.250	1334.345	20.000
5.760	17205.080	198.745	1070.333	394.851	19.000
5.780	17226.840	197.785	1117.833	-384.569	20.000
5.800	17249.480	185.340	1099.417	-816.614	20.000
5.820	17270.961	166.253	1124.167	-1082.937	21.000
5.840	17294.180	142.474	1089.167	-1292.772	18.000
5.860	17314.641	114.765	1068.667	-1477.154	20.000
5.880	17337.520	83.705	1169.000	-1627.770	21.000
5.900	17361.199	50.619	1209.000	-1648.906	20.000
5.920	17386.100	19.970	1300.167	-1327.744	20.000
5.940	17413.119	0.625	1388.750	-486.567	20.000
5.960	17440.840	2.407	1336.500	690.371	20.000
5.980	17465.820	26.886	1154.667	1626.247	19.000
6.000	17486.939	64.375	954.250	2041.028	20.000
6.020	17504.801	106.067	906.833	2084.188	21.000
6.040	17523.660	146.008	922.500	1898.854	20.000
6.060	17541.939	179.749	965.000	1352.625	19.000
6.080	17562.660	198.105	1092.000	447.278	21.000
6.100	17585.199	198.211	1132.917	-340.774	20.000
6.120	17607.660	186.360	1120.750	-795.732	20.000
6.140	17630.039	167.578	1122.167	-1067.324	20.000
6.160	17652.400	144.013	1087.917	-1313.273	19.000
6.180	17673.801	115.588	1098.500	-1466.999	21.000
6.200	17696.641	85.625	1159.417	-1591.147	19.000
6.220	17720.320	52.554	1245.333	-1657.411	22.000
6.240	17746.301	21.616	1299.083	-1358.146	19.000
6.260	17772.199	1.295	1354.667	-554.607	20.000
6.280	17799.900	1.508	1314.500	616.428	20.000
6.300	17824.000	24.799	1128.417	1582.452	19.000
6.320	17845.221	61.709	989.167	2020.083	21.000
6.340	17863.939	103.112	909.500	2079.936	19.000
6.360	17882.020	143.190	891.750	1913.071	20.000
6.380	17900.119	177.464	954.000	1408.161	21.000
6.400	17920.641	197.389	1113.083	524.014	20.000
6.420	17943.939	198.745	1128.333	-291.077	20.000
6.440	17965.439	187.670	1083.250	-756.571	20.000
6.460	17987.721	169.573	1151.333	-1071.576	21.000
6.480	18010.900	145.597	1083.333	-1262.623	18.000
6.500	18031.301	119.335	1060.167	-1419.332	20.000
6.520	18054.080	88.793	1195.083	-1613.235	21.000
6.540	18078.721	55.783	1237.250	-1661.156	21.000
6.560	18103.439	24.358	1254.083	-1407.146	19.000
6.580	18129.240	2.529	1355.750	-656.858	20.000
6.600	18157.260	0.472	1404.583	516.080	21.000
6.620	18183.900	22.347	1152.583	1542.148	18.000
6.640	18203.619	59.043	970.750	2033.094	21.000
6.660	18223.500	100.979	931.000	2111.290	20.000
6.680	18241.080	141.590	895.833	1923.353	19.000
6.700	18260.141	176.017	1026.667	1464.206	21.000
6.720	18281.740	197.739	1058.083	566.032	19.000
6.740	18302.381	198.760	1075.750	-307.325	20.000
6.760	18325.061	187.685	1170.333	-764.822	21.000
6.780	18348.520	169.345	1122.000	-1056.534	20.000
6.800	18369.980	145.978	1084.000	-1273.667	20.000
6.820	18392.461	118.665	1170.083	-1457.605	21.000
6.840	18416.420	87.925	1166.500	-1619.773	19.000
6.860	18439.221	54.747	1177.833	-1664.710	20.000
6.880	18464.100	23.383	1304.500	-1400.926	21.000
6.900	18491.221	1.858	1401.417	-616.935	20.000
6.920	18519.340	1.036	1364.000	581.328	20.000
6.940	18544.801	24.038	1149.583	1586.133	19.000
6.960	18565.381	61.297	947.417	2046.042	19.000
6.980	18583.641	103.280	918.833	2110.846	21.000
7.000	18602.680	143.921	975.583	1935.540	21.000
7.020	18622.680	178.424	1022.750	1403.718	20.000
7.040	18643.561	197.922	1067.333	486.503	19.000
7.060	18665.221	198.394	1082.000	-324.335	20.000
7.080	18686.840	186.924	1101.000	-783.609	20.000
7.100	18709.240	168.279	1122.917	-1059.453	20.000
7.120	18731.480	145.064	1083.500	-1267.637	19.000
7.140	18752.840	117.781	1096.000	-1453.797	21.000
7.160	18775.600	87.178	1159.250	-1613.553	20.000
7.180	18799.160	54.108	1199.583	-1658.807	20.000
7.200	18823.820	22.926	1294.000	-1381.694	20.000
7.220	18850.699	1.874	1352.333	-605.447	19.000
7.240	18877.359	0.914	1321.333	560.700	20.000
7.260	18902.920	23.322	1184.083	1552.748	21.000
7.280	18924.461	59.942	996.417	2015.449	20.000
7.300	18943.320	101.436	906.250	2100.881	20.000
7.320	18961.420	142.124	941.250	1932.112	21.000
7.340	18981.100	176.565	980.167	1431.772	19.000
7.360	19000.801	197.267	1054.000	554.417	20.000
7.380	19023.119	198.958	1103.000	-275.209	19.000
7.400	19044.619	188.203	1088.667	-753.207	21.000
7.420	19066.939	170.107	1147.750	-1038.254	20.000
7.440	19090.080	147.227	1107.667	-1250.500	19.000
7.460	19111.340	120.325	1090.333	-1435.010	20.000
7.480	19133.980	90.073	1125.667	-1595.590	21.000
7.500	19156.461	57.276	1162.500	-1655.824	19.000
7.520	19180.881	25.774	1280.250	-1422.188	21.000
7.540	19207.539	3.336	1380.083	-708.587	20.000
7.560	19235.359	-0.122	1359.917	435.790	20.000
7.580	19261.080	20.168	1186.083	1474.679	20.000
7.600	19282.820	55.844	1027.000	1990.949	21.000
7.620	19302.561	97.141	939.667	2095.359	20.000
7.640	19320.721	137.828	892.583	1950.074	20.000
7.660	19338.760	173.153	925.000	1510.603	19.000
7.680	19358.199	195.926	1041.500	658.191	20.000
7.700	19380.400	199.384	1158.250	-203.233	21.000
7.720	19403.881	189.711	1155.083	-713.157	20.000
7.740	19426.221	172.209	1082.667	-1022.069	20.000
7.760	19447.539	149.679	1088.500	-1190.076	20.000
7.780	19469.840	124.423	1094.083	-1420.855	18.000
7.800	19491.600	93.043	1159.083	-1637.545	22.000
7.820	19516.119	60.125	1198.417	-1658.490	19.000
7.840	19539.600	28.303	1247.750	-1462.429	20.000
7.860	19566.221	4.539	1349.083	-790.528	20.000
7.880	19592.939	-0.655	1337.833	350.803	20.000
7.900	19619.061	18.188	1217.250	1423.204	20.000
7.920	19641.240	53.300	1023.000	1979.144	20.000
7.940	19660.480	94.612	927.417	2108.243	20.000
7.960	19678.779	135.741	887.083	1978.573	19.000
7.980	19696.801	171.737	1001.250	1552.621	22.000
8.000	19718.900	195.439	1123.833	700.907	20.000
8.020	19741.141	199.567	1127.417	-179.686	20.000
8.040	19763.779	190.168	1108.667	-707.191	20.000
8.060	19785.260	172.696	1037.500	-1020.165	18.000
8.080	19805.779	150.197	1062.000	-1199.533	20.000
8.100	19828.141	124.636	1166.750	-1416.222	22.000
8.120	19851.939	93.576	1157.250	-1659.950	18.000
8.140	19874.520	59.622	1164.500	-1669.915	21.000
8.160	19899.080	28.470	1284.000	-1441.103	20.000
8.180	19925.779	4.570	1385.917	-810.648	20.000
8.200	19953.859	-0.975	1385.167	360.768	20.000
8.220	19980.141	18.615	1192.083	1459.382	20.000
8.240	20001.520	54.245	1004.250	2005.167	19.000
8.260	20020.961	96.074	936.417	2128.364	21.000
8.280	20039.400	137.462	926.083	1990.569	20.000
8.300	20058.439	173.549	991.250	1531.675	20.000
8.320	20079.100	196.307	1056.833	641.435	20.000
8.340	20100.660	199.232	1115.083	-232.874	20.000
8.360	20123.520	188.980	1143.917	-744.829	19.000
8.380	20146.180	170.823	1129.167	-1046.442	21.000
8.400	20168.721	147.790	1128.667	-1251.389	19.000
8.420	20191.260	120.858	1106.750	-1463.127	20.000
8.440	20213.279	89.600	1133.417	-1633.609	21.000
8.460	20237.039	56.453	1248.500	-1673.152	20.000
8.480	20262.939	24.616	1290.917	-1426.060	20.000
8.500	20288.900	2.544	1405.083	-660.349	20.000
8.520	20318.340	0.579	1379.750	524.332	20.000
8.540	20343.020	22.636	1155.000	1550.970	20.000
8.560	20364.760	59.515	985.333	2046.677	19.000
8.580	20383.061	101.802	924.250	2127.856	22.000
8.600	20402.180	142.702	927.000	1946.393	18.000
8.620	20420.561	177.449	1003.917	1425.235	22.000
8.640	20442.279	197.556	1064.083	518.429	18.000
8.660	20462.920	198.577	1077.917	-305.485	20.000
8.680	20485.680	187.305	1170.917	-776.691	21.000
8.700	20509.061	168.751	1111.750	-1062.690	19.000
8.720	20530.381	145.353	1113.417	-1274.492	22.000
8.740	20553.699	118.010	1130.833	-1459.255	18.000
8.760	20575.580	87.254	1128.417	-1617.361	21.000
8.780	20599.260	54.184	1214.500	-1660.711	19.000
8.800	20624.039	22.910	1251.833	-1385.756	20.000
8.820	20649.900	1.828	1435.917	-603.670	22.000
8.840	20680.260	0.990	1396.667	571.236	20.000
8.860	20704.400	23.703	1094.750	1574.074	18.000
8.880	20724.840	60.810	975.667	2038.235	21.000
8.900	20743.801	102.609	895.500	2102.594	19.000
8.920	20761.301	143.068	924.167	1914.658	21.000
8.940	20781.160	177.144	1022.167	1416.476	21.000
8.960	20801.920	197.572	1056.333	533.091	19.000
8.980	20823.439	198.684	1106.667	-303.580	20.000
9.000	20846.020	187.442	1128.083	-774.851	20.000
9.020	20868.359	168.964	1111.417	-1055.137	20.000
9.040	20890.539	145.780	1113.833	-1263.766	20.000
9.060	20912.859	118.619	1092.917	-1452.083	20.000
9.080	20934.699	87.986	1164.250	-1608.602	21.000
9.100	20959.340	55.113	1204.750	-1654.936	19.000
9.120	20982.961	23.794	1248.000	-1397.562	20.000
9.140	21009.801	2.270	1430.917	-635.850	21.000
9.160	21038.859	0.655	1354.167	530.742	19.000
9.180	21063.119	22.606	1135.000	1538.784	21.000
9.200	21084.520	59.104	973.750	2013.672	19.000
9.220	21102.680	100.553	917.917	2090.027	21.000
9.240	21121.641	140.951	924.750	1933.191	18.000
9.260	21139.779	175.773	924.917	1452.908	20.000
9.280	21159.381	196.901	1080.167	587.168	21.000
9.300	21182.619	199.461	1159.333	-223.353	20.000
9.320	21205.119	189.529	1126.083	-763.172	21.000
9.340	21227.461	170.396	1055.750	-1070.814	18.000
9.360	21247.840	147.547	1086.083	-1246.692	21.000
9.380	21271.000	120.599	1123.750	-1435.771	19.000
9.400	21292.779	90.362	1151.250	-1596.098	21.000
9.420	21317.279	57.504	1227.333	-1661.981	20.000
9.440	21341.779	25.850	1279.167	-1427.330	21.000
9.460	21368.439	3.382	1344.833	-708.143	19.000
9.480	21395.061	-0.061	1323.917	435.663	19.000
9.500	21420.760	20.168	1196.500	1466.110	21.000
9.520	21442.600	55.585	1008.833	1978.319	20.000
9.540	21461.600	96.684	912.000	2086.790	20.000
9.560	21479.660	137.264	912.083	1951.026	21.000
9.580	21498.359	172.772	944.250	1530.914	19.000
9.600	21517.779	196.048	1040.917	673.170	20.000
9.620	21539.939	199.537	1133.417	-205.899	20.000
9.640	21562.480	189.818	1097.750	-714.490	19.000
9.660	21583.939	172.346	1091.667	-1009.819	21.000
9.680	21606.320	149.999	1120.417	-1231.205	20.000
9.700	21628.660	123.341	1126.083	-1423.585	20.000
9.720	21651.340	93.271	1122.833	-1597.495	19.000
9.740	21673.840	60.185	1163.917	-1675.310	20.000
9.760	21698.279	28.151	1272.250	-1466.491	20.000
9.780	21724.840	4.448	1418.917	-785.323	21.000
9.800	21754.000	-0.670	1377.833	348.962	19.000
9.820	21779.061	18.097	1179.583	1431.328	21.000
9.840	21801.359	53.590	1032.000	1993.488	20.000
9.860	21820.619	95.008	920.500	2111.163	20.000
9.880	21838.801	136.183	914.917	1979.969	20.000
9.900	21857.660	172.163	977.417	1546.781	20.000
9.920	21878.100	195.637	1078.250	684.595	20.000
9.940	21900.439	199.415	1113.083	-192.443	19.000
9.960	21922.260	189.894	1074.417	-709.476	20.000
9.980	21943.801	172.407	1128.583	-1016.547	21.000
10.000	21967.119	149.847	1118.000	-1241.932	19.000
10.020	21988.461	123.006	1091.250	-1434.057	20.000
10.040	22011.221	92.754	1153.167	-1597.621	21.000
10.060	22034.699	59.835	1229.333	-1666.995	21.000
10.080	22060.279	27.907	1283.833	-1462.492	19.000
10.100	22085.900	4.311	1313.083	-773.264	19.000
10.120	22112.699	-0.442	1347.167	368.638	21.000
10.140	22138.920	18.630	1217.333	1434.946	19.000
10.160	22161.119	53.986	1045.083	1987.141	22.000
10.180	22181.100	95.343	946.583	2105.768	20.000
10.200	22199.320	136.350	885.083	1971.083	19.000
10.220	22217.340	172.163	977.500	1537.134	21.000
10.240	22238.619	195.485	1105.333	687.705	20.000
10.260	22260.900	199.506	1098.750	-183.684	19.000
10.280	22282.520	190.047	1096.000	-703.954	21.000
10.300	22304.840	172.742	1125.417	-1009.248	19.000
10.320	22327.100	150.319	1047.083	-1219.717	19.000
10.340	22347.439	123.905	1128.000	-1476.710	22.000
10.360	22372.020	92.083	1157.000	-1583.721	18.000
10.380	22393.480	61.267	1121.167	-1598.002	21.000
10.400	22417.740	29.308	1271.750	-1480.518	20.000
10.420	22444.119	5.225	1365.750	-823.279	20.000
10.440	22471.920	-0.929	1406.417	298.630	21.000
10.460	22499.141	16.954	1220.333	1383.789	18.000
10.480	22520.359	51.472	967.083	1953.946	20.000
10.500	22538.760	92.327	897.250	2087.679	21.000
10.520	22556.779	133.106	902.917	1961.563	19.000
10.540	22575.160	168.979	945.750	1578.771	20.000
10.560	22594.859	193.916	1034.833	783.990	21.000
10.580	22616.420	199.902	1095.333	-83.147	20.000
10.600	22638.500	192.332	1138.500	-625.567	21.000
10.620	22661.400	176.261	1066.083	-954.980	18.000
10.640	22681.461	154.919	1061.333	-1168.750	22.000
10.660	22704.240	129.800	1134.500	-1347.103	20.000
10.680	22726.500	101.147	1128.250	-1522.663	20.000
10.700	22749.439	69.386	1136.083	-1638.750	19.000
10.720	22772.279	37.047	1201.833	-1541.513	20.000
10.740	22797.820	10.297	1333.583	-1033.621	20.000
10.760	22825.100	-1.599	1376.250	-84.035	21.000
10.780	22851.939	8.287	1257.250	1132.825	20.000
10.800	22874.939	41.129	1068.833	1886.159	20.000
10.820	22894.801	80.247	890.667	2046.550	18.000
10.840	22911.461	121.407	872.917	2019.702	20.000
10.860	22930.340	159.337	958.833	1758.012	21.000
10.880	22949.760	189.117	1016.167	1048.282	21.000
10.900	22971.080	200.009	1102.000	113.041	20.000
10.920	22993.500	195.195	1126.417	-519.952	20.000
10.940	23015.779	180.831	1084.000	-889.986	19.000
10.960	23037.020	160.479	1081.167	-1133.397	20.000
10.980	23059.080	135.878	1077.833	-1326.348	20.000
11.000	23080.420	107.590	1132.083	-1505.779	21.000
11.020	23104.301	76.043	1161.833	-1640.908	19.000
11.040	23127.080	43.185	1227.750	-1600.351	21.000
11.060	23153.520	14.456	1320.000	-1180.555	19.000
11.080	23179.520	-1.021	1351.500	-251.471	20.000
11.100	23207.020	5.728	1304.333	915.692	19.000
11.120	23230.721	33.711	1064.833	1748.682	20.000
11.140	23250.080	72.539	926.583	2057.594	21.000
11.160	23268.439	113.790	899.083	2039.568	20.000
11.180	23286.400	152.543	913.500	1820.848	20.000
11.200	23305.500	184.243	1025.000	1206.324	21.000
11.220	23327.320	199.156	1123.667	299.011	20.000
11.240	23349.801	197.176	1094.750	-416.431	19.000
11.260	23371.119	184.243	1083.000	-834.767	21.000
11.280	23393.160	164.882	1077.833	-1088.142	19.000
11.300	23414.279	141.149	1074.833	-1287.186	20.000
11.320	23436.400	113.577	1124.667	-1468.332	20.000
11.340	23459.080	82.730	1124.083	-1616.218	19.000
11.360	23481.641	49.934	1174.000	-1623.644	21.000
11.380	23506.420	19.894	1294.667	-1310.924	20.000
11.400	23533.359	0.564	1426.583	-487.074	21.000
11.420	23562.119	2.392	1295.500	690.435	18.000
11.440	23584.859	26.810	1129.583	1621.423	22.000
11.460	23607.500	64.161	1012.833	2029.921	19.000
11.480	23625.301	105.580	849.417	2072.509	19.000
11.500	23642.561	145.368	895.417	1892.253	21.000
11.520	23661.480	179.064	982.667	1363.732	20.000
11.540	23682.039	197.892	1110.500	472.413	21.000
11.560	23705.301	198.470	1118.083	-307.198	19.000
11.580	23726.600	187.244	1104.167	-812.298	20.000
11.600	23749.619	167.608	1139.667	-1045.299	21.000
11.620	23771.600	145.947	1043.750	-1211.719	18.000
11.640	23791.779	118.970	1029.833	-1436.152	20.000
11.660	23813.381	88.945	1120.500	-1586.578	20.000
11.680	23836.699	56.271	1218.750	-1644.082	21.000
11.700	23862.039	25.134	1305.250	-1403.972	20.000
11.720	23888.561	3.062	1324.333	-680.660	19.000
11.740	23915.000	0.228	1374.833	444.993	22.000
11.760	23942.539	20.382	1244.583	1498.544	20.000
11.780	23963.920	56.895	938.167	1974.574	19.000
11.800	23981.221	96.745	864.583	2044.265	20.000
11.820	23999.279	137.234	914.417	1946.203	20.000
11.840	24017.920	172.468	968.417	1516.823	20.000
11.860	24038.061	195.591	1028.750	681.802	19.000
11.880	24059.039	199.567	1082.500	-176.893	21.000
11.900	24081.340	190.397	1146.333	-687.134	21.000
11.920	24104.359	173.366	1107.167	-1007.407	19.000
11.940	24125.500	150.898	1042.500	-1210.196	19.000
11.960	24146.600	125.352	1085.833	-1348.055	21.000
11.980	24169.061	96.729	1142.667	-1562.586	20.000
12.000	24192.240	63.552	1173.167	-1678.991	20.000
12.020	24216.381	31.517	1291.333	-1489.404	21.000
12.040	24243.600	6.611	1350.167	-888.400	19.000
12.060	24270.020	-1.341	1360.333	174.989	21.000
12.080	24297.320	13.908	1260.417	1300.325	20.000
12.100	24319.660	47.892	1006.417	1937.253	20.000
12.120	24338.221	88.397	876.750	2087.679	18.000
12.140	24355.680	129.633	920.500	2008.150	22.000
12.160	24375.061	166.786	937.500	1649.096	18.000
12.180	24393.461	193.047	1002.167	844.795	20.000
12.200	24415.461	199.933	1130.750	-69.056	20.000
12.220	24438.359	192.057	1201.250	-650.892	22.000
12.240	24462.881	175.438	1161.083	-987.414	20.000
12.260	24484.520	153.305	1058.500	-1222.383	18.000
12.280	24506.080	126.891	1139.750	-1410.827	22.000
12.300	24529.920	97.049	1162.833	-1588.609	18.000
12.320	24552.539	63.994	1171.000	-1685.211	21.000
12.340	24577.119	31.395	1250.000	-1520.378	20.000
12.360	24602.641	6.108	1349.917	-884.147	20.000
12.380	24630.721	-1.142	1398.833	245.886	19.000
12.400	24657.359	15.888	1210.917	1367.413	20.000
12.420	24679.160	50.619	1039.417	1975.844	21.000
12.440	24699.539	92.022	986.500	2125.571	21.000
12.460	24718.699	133.730	923.167	2018.242	20.000
12.480	24736.920	170.640	933.333	1600.224	19.000
12.500	24756.641	195.180	1056.917	728.961	20.000
12.520	24779.061	199.567	1150.667	-173.846	20.000
12.540	24802.160	190.199	1149.917	-717.283	20.000
12.560	24824.920	172.513	1133.250	-989.064	20.000
12.580	24847.539	150.898	1131.333	-1255.832	21.000
12.600	24870.119	122.534	1109.917	-1495.687	19.000
12.620	24892.240	91.763	1148.917	-1618.186	19.000
12.640	24916.141	58.403	1177.000	-1688.004	20.000
12.660	24939.961	26.216	1340.167	-1455.637	22.000
12.680	24969.400	3.275	1446.333	-717.536	19.000
12.700	24996.680	0.091	1346.500	475.523	21.000
12.720	25022.779	21.616	1180.750	1547.987	19.000
12.740	25043.840	58.815	992.083	2068.574	20.000
12.760	25063.301	101.543	968.583	2154.577	21.000
12.780	25082.740	143.053	945.083	1982.571	19.000
12.800	25101.520	178.424	994.833	1430.440	20.000
12.820	25122.779	198.044	1085.833	478.379	19.000
12.840	25144.859	198.166	1160.667	-346.677	22.000
12.860	25168.859	186.177	1177.250	-818.138	20.000
12.880	25191.600	166.694	1130.583	-1102.804	20.000
12.900	25214.160	142.626	1101.000	-1312.130	18.000
12.920	25235.920	114.430	1122.833	-1500.575	21.000
12.940	25259.180	82.974	1151.250	-1644.844	19.000
12.960	25282.279	49.614	1228.750	-1660.711	22.000
12.980	25308.740	18.858	1406.917	-1319.366	20.000
13.000	25337.500	0.076	1373.583	-435.346	19.000
13.020	25363.279	3.321	1293.167	784.688	21.000
13.040	25388.939	29.796	1173.250	1703.046	20.000
13.060	25409.900	68.289	983.667	2092.376	20.000
13.080	25428.881	111.094	908.000	2129.760	20.000
13.100	25446.721	151.538	901.583	1904.693	19.000
13.120	25465.580	184.639	1003.250	1243.709	19.000
13.140	25487.119	199.521	1168.083	265.054	22.000
13.160	25511.301	196.475	1121.083	-470.572	18.000
13.180	25532.141	182.613	1132.917	-880.339	22.000
13.200	25556.680	162.307	1167.500	-1139.490	20.000
13.220	25578.260	137.462	1070.083	-1343.992	18.000
13.240	25600.061	108.748	1095.583	-1529.962	19.000
13.260	25622.359	76.698	1158.000	-1665.027	21.000
13.280	25646.539	43.384	1235.167	-1626.818	20.000
13.300	25672.180	14.151	1415.833	-1193.313	22.000
13.320	25702.180	-1.188	1412.000	-224.750	19.000
13.340	25727.680	6.520	1232.083	989.889	20.000
