%Time (s)	Wheel Position (deg)	Slide position (mm)	Wheel Speed (deg/s)	Slide Speed (mm/s)	Actual sample time (ms)	%2/9/20163:09 PM
0.000	8882.480	131.599	162.833	339.794	22.000
0.020	8885.680	137.968	144.167	305.580	18.000
0.040	8888.260	143.916	128.000	289.905	20.000
0.060	8890.880	149.520	128.000	263.692	20.000
0.080	8893.360	154.437	120.583	230.779	20.000
0.100	8895.760	158.855	126.000	217.770	22.000
0.120	8898.360	163.210	120.833	214.908	18.000
0.140	8900.640	167.441	124.917	208.338	22.000
0.160	8903.400	171.547	137.500	201.964	20.000
0.180	8906.100	175.543	139.750	200.728	20.000
0.200	8909.040	179.555	154.167	195.655	20.000
0.220	8912.220	183.333	154.500	183.491	18.000
0.240	8915.360	186.908	184.083	175.751	22.000
0.260	8919.580	190.326	209.750	162.027	19.000
0.280	8923.740	193.324	232.083	137.570	21.000
0.300	8928.920	195.774	265.417	106.023	19.000
0.320	8934.380	197.476	301.417	58.150	21.000
0.340	8941.000	198.100	344.250	15.611	20.000
0.360	8948.040	197.976	366.417	-47.613	20.000
0.380	8955.580	196.024	375.500	-145.765	19.000
0.400	8963.080	192.293	388.000	-211.656	20.000
0.420	8971.200	187.626	423.333	-267.529	21.000
0.440	8979.880	181.584	432.583	-328.736	20.000
0.460	8988.380	174.559	417.333	-372.772	19.000
0.480	8996.700	166.660	426.917	-421.035	20.000
0.500	9005.600	157.700	466.917	-472.681	21.000
0.520	9015.180	147.756	462.417	-522.570	19.000
0.540	9024.160	136.766	475.583	-578.638	21.000
0.560	9034.200	124.605	486.833	-635.618	19.000
0.580	9043.620	111.367	491.250	-689.280	20.000
0.600	9054.020	97.114	530.000	-728.697	20.000
0.620	9064.820	82.269	566.333	-762.325	21.000
0.640	9076.600	66.705	590.250	-784.830	20.000
0.660	9088.340	51.047	596.167	-781.123	20.000
0.680	9100.520	35.702	619.000	-741.966	20.000
0.700	9113.100	21.715	640.333	-650.448	20.000
0.720	9126.120	10.116	663.500	-492.519	20.000
0.740	9139.460	2.466	649.750	-261.350	19.000
0.760	9152.160	-0.078	655.250	12.684	21.000
0.780	9165.480	2.888	629.000	272.017	19.000
0.800	9177.020	10.444	543.917	469.233	20.000
0.820	9187.380	21.356	497.583	628.463	21.000
0.840	9196.820	35.046	424.000	699.362	19.000
0.860	9204.460	48.877	374.000	695.719	21.000
0.880	9211.900	62.771	348.167	686.158	20.000
0.900	9218.260	76.180	290.750	652.855	19.000
0.920	9223.660	88.794	260.417	606.087	20.000
0.940	9228.760	100.377	244.333	552.230	20.000
0.960	9233.400	110.883	219.083	499.349	20.000
0.980	9237.540	120.359	197.500	447.964	20.000
1.000	9241.320	128.804	178.083	394.692	20.000
1.020	9244.720	136.235	169.000	356.836	21.000
1.040	9248.100	143.166	162.833	334.460	20.000
1.060	9251.220	149.613	152.750	310.003	20.000
1.080	9254.240	155.561	148.500	283.660	20.000
1.100	9257.180	160.994	147.583	263.041	20.000
1.120	9260.140	166.130	144.417	250.488	19.000
1.140	9263.000	171.031	148.583	239.950	20.000
1.160	9266.140	175.746	163.167	233.641	20.000
1.180	9269.520	180.335	174.083	219.396	20.000
1.200	9273.140	184.488	192.333	199.232	21.000
1.220	9277.220	188.312	211.833	182.190	20.000
1.240	9281.580	191.747	221.083	160.791	19.000
1.260	9286.200	194.682	259.000	129.894	21.000
1.280	9291.920	196.852	290.667	83.843	19.000
1.300	9297.780	197.976	310.000	27.059	20.000
1.320	9304.460	197.976	362.750	-17.172	21.000
1.340	9312.120	197.179	379.250	-78.054	19.000
1.360	9319.580	194.604	388.000	-189.996	20.000
1.380	9327.720	189.733	416.167	-270.847	20.000
1.400	9336.140	184.004	423.417	-307.272	20.000
1.420	9344.720	177.385	446.833	-360.023	21.000
1.440	9353.960	169.564	461.417	-420.254	19.000
1.460	9363.040	160.619	445.167	-471.380	20.000
1.480	9371.960	150.737	472.750	-517.171	20.000
1.500	9381.880	139.904	481.000	-568.361	20.000
1.520	9391.220	127.961	493.417	-627.292	20.000
1.540	9401.680	114.817	520.167	-685.247	21.000
1.560	9411.940	100.596	525.417	-737.348	19.000
1.580	9422.800	85.438	553.917	-770.846	20.000
1.600	9434.080	69.889	578.917	-784.375	20.000
1.620	9445.860	54.169	583.083	-784.570	20.000
1.640	9457.480	38.699	600.250	-757.512	20.000
1.660	9470.060	24.212	660.667	-677.637	20.000
1.680	9483.620	12.036	658.417	-529.269	20.000
1.700	9496.420	3.497	668.750	-309.028	20.000
1.720	9510.340	0.000	679.917	-34.799	20.000
1.740	9523.320	2.092	635.750	235.657	21.000
1.760	9535.640	9.148	575.417	462.273	19.000
1.780	9546.240	20.122	496.583	616.820	21.000
1.800	9555.600	33.298	438.167	687.068	19.000
1.820	9563.820	47.254	387.750	707.037	20.000
1.840	9571.120	61.303	335.083	681.084	20.000
1.860	9577.340	74.479	305.250	660.335	20.000
1.880	9583.340	87.639	273.833	629.113	20.000
1.900	9588.320	99.456	246.083	561.402	20.000
1.920	9593.240	110.134	230.417	504.878	20.000
1.940	9597.480	119.703	200.750	458.241	21.000
1.960	9601.320	128.445	182.167	405.554	19.000
1.980	9604.780	135.970	163.083	359.307	19.000
2.000	9607.920	142.932	159.667	335.826	21.000
2.020	9611.140	149.364	149.250	301.222	20.000
2.040	9613.880	154.999	135.333	270.391	20.000
2.060	9616.640	160.213	139.583	244.308	20.000
2.080	9619.440	164.834	137.333	228.567	20.000
2.100	9622.120	169.408	130.833	221.608	19.000
2.120	9624.760	173.701	140.000	213.672	20.000
2.140	9627.800	177.963	165.917	207.493	22.000
2.160	9631.280	181.990	164.917	199.297	18.000
2.180	9634.460	185.924	176.833	190.906	21.000
2.200	9638.460	189.561	209.750	170.873	20.000
2.220	9642.800	192.715	229.500	144.074	20.000
2.240	9647.660	195.306	252.000	117.601	19.000
2.260	9652.980	197.304	295.417	69.988	21.000
2.280	9659.420	198.054	326.000	13.920	19.000
2.300	9665.980	197.897	348.667	-27.904	20.000
2.320	9673.420	196.711	385.167	-114.869	20.000
2.340	9681.300	193.261	403.583	-208.078	20.000
2.360	9689.540	188.531	417.000	-273.253	20.000
2.380	9698.080	182.396	454.083	-330.102	22.000
2.400	9707.580	175.371	467.250	-379.081	20.000
2.420	9716.640	167.207	454.667	-436.581	20.000
2.440	9725.880	157.996	467.917	-472.550	20.000
2.460	9735.360	148.177	478.667	-536.099	20.000
2.480	9745.040	136.547	495.833	-599.648	20.000
2.500	9755.040	124.277	474.750	-643.553	18.000
2.520	9764.320	110.711	517.250	-711.655	22.000
2.540	9775.660	95.944	541.667	-753.219	18.000
2.560	9785.860	80.676	535.833	-781.318	20.000
2.580	9797.360	64.769	590.167	-801.287	20.000
2.600	9809.320	48.830	604.083	-788.278	20.000
2.620	9821.700	33.485	661.750	-740.080	22.000
2.640	9835.600	19.591	682.167	-636.658	20.000
2.660	9848.780	8.477	663.667	-462.338	20.000
2.680	9862.240	1.561	676.917	-211.851	20.000
2.700	9875.540	0.203	623.083	71.354	18.000
2.720	9887.220	4.246	588.500	323.793	20.000
2.740	9899.080	12.832	556.833	528.164	20.000
2.760	9909.320	24.884	489.750	656.237	21.000
2.780	9918.700	38.543	433.167	694.353	20.000
2.800	9926.640	52.437	370.750	706.061	20.000
2.820	9933.680	66.611	339.333	692.987	21.000
2.840	9940.180	79.974	295.833	649.082	19.000
2.860	9945.580	92.525	265.083	600.363	21.000
2.880	9950.840	103.968	245.917	549.433	20.000
2.900	9955.340	114.474	207.667	493.170	19.000
2.920	9959.240	123.700	188.250	437.101	20.000
2.940	9962.940	132.020	181.000	393.066	21.000
2.960	9966.460	139.435	168.667	347.925	20.000
2.980	9969.660	146.023	150.000	319.630	19.000
3.000	9972.520	152.220	143.333	289.059	21.000
3.020	9975.420	157.591	141.167	257.317	20.000
3.040	9978.140	162.602	131.167	242.942	19.000
3.060	9980.740	167.316	135.750	226.811	21.000
3.080	9983.600	171.718	145.250	218.941	20.000
3.100	9986.520	176.089	146.833	213.867	19.000
3.120	9989.520	180.242	157.750	202.289	20.000
3.140	9992.860	184.176	172.167	191.167	20.000
3.160	9996.460	187.860	196.333	174.645	21.000
3.180	10000.720	191.154	220.333	158.189	20.000
3.200	10005.280	194.151	244.250	137.830	20.000
3.220	10010.540	196.539	278.167	95.030	20.000
3.240	10016.400	197.866	309.250	36.230	20.000
3.260	10022.920	198.069	343.333	0.000	20.000
3.280	10030.100	197.695	373.167	-69.078	20.000
3.300	10037.740	195.166	381.583	-165.084	19.000
3.320	10045.400	191.216	399.083	-234.161	20.000
3.340	10053.740	185.862	423.167	-294.523	20.000
3.360	10062.320	179.461	446.500	-351.632	21.000
3.380	10071.540	171.812	459.750	-407.441	20.000
3.400	10080.640	163.210	459.167	-453.427	20.000
3.420	10089.960	153.641	470.917	-507.740	20.000
3.440	10099.480	142.916	481.583	-561.337	20.000
3.460	10109.240	131.318	495.833	-580.980	20.000
3.480	10119.300	119.344	508.167	-670.937	20.000
3.500	10129.520	104.498	505.833	-759.333	19.000
3.520	10139.760	89.387	550.333	-764.211	21.000
3.540	10151.520	73.901	593.167	-787.107	20.000
3.560	10163.220	57.978	579.000	-799.921	19.000
3.580	10174.840	42.133	601.167	-776.830	20.000
3.600	10187.360	27.225	640.333	-706.061	20.000
3.620	10200.360	14.315	659.917	-570.183	20.000
3.640	10213.700	4.886	671.000	-359.958	20.000
3.660	10227.180	0.265	684.667	-93.534	21.000
3.680	10240.880	1.218	667.083	184.662	20.000
3.700	10253.480	7.415	576.833	425.003	19.000
3.720	10264.000	17.765	501.833	593.794	20.000
3.740	10273.700	30.644	455.917	679.328	20.000
3.760	10282.200	44.537	397.417	703.199	20.000
3.780	10289.660	58.556	350.500	697.931	20.000
3.800	10296.300	72.293	318.167	668.856	21.000
3.820	10302.380	85.188	283.083	619.942	20.000
3.840	10307.600	97.068	241.083	570.183	19.000
3.860	10312.120	107.964	217.667	515.285	20.000
3.880	10316.360	117.658	202.833	455.379	20.000
3.900	10320.220	126.244	183.500	407.245	20.000
3.920	10323.720	134.018	167.583	371.146	20.000
3.940	10326.960	141.106	158.417	336.151	20.000
3.960	10330.060	147.475	149.250	302.133	20.000
3.980	10332.920	153.220	136.667	272.733	20.000
4.000	10335.580	158.418	135.000	247.951	21.000
4.020	10338.320	163.195	131.833	233.316	19.000
4.040	10340.860	167.769	128.000	220.502	20.000
4.060	10343.520	172.030	140.500	209.639	20.000
4.080	10346.460	176.183	146.583	203.980	20.000
4.100	10349.400	180.195	155.583	199.818	20.000
4.120	10352.720	184.129	170.250	185.768	20.000
4.140	10356.260	187.641	194.417	176.922	20.000
4.160	10360.480	191.169	213.333	163.067	20.000
4.180	10364.820	194.057	236.083	129.244	20.000
4.200	10370.000	196.321	274.333	97.047	20.000
4.220	10375.760	197.835	302.500	44.556	20.000
4.240	10382.160	198.100	345.250	-3.773	20.000
4.260	10389.500	197.601	375.083	-64.720	20.000
4.280	10397.060	195.353	386.750	-158.319	20.000
4.300	10404.940	191.388	394.167	-225.380	20.000
4.320	10412.860	186.392	406.750	-285.677	20.000
4.340	10421.300	180.008	439.083	-338.038	20.000
4.360	10430.320	172.873	451.667	-391.244	20.000
4.380	10439.240	164.366	436.750	-443.671	19.000
4.400	10447.980	155.155	463.000	-489.332	21.000
4.420	10457.760	144.743	487.583	-546.311	20.000
4.440	10467.360	133.331	486.167	-595.290	20.000
4.460	10477.260	120.890	497.833	-652.724	20.000
4.480	10487.300	107.199	513.500	-717.899	20.000
4.500	10497.800	92.338	526.917	-751.528	19.000
4.520	10508.440	77.211	549.667	-776.570	20.000
4.540	10519.920	61.350	603.500	-793.937	21.000
4.560	10532.340	45.677	603.667	-774.749	19.000
4.580	10544.160	30.613	628.917	-720.826	21.000
4.600	10557.480	17.250	651.750	-603.095	19.000
4.620	10570.100	6.931	644.500	-416.677	21.000
4.640	10583.440	0.968	686.417	-168.661	20.000
4.660	10597.160	0.359	648.917	108.885	19.000
4.680	10609.220	5.152	583.500	357.616	20.000
4.700	10620.600	14.268	548.083	543.905	21.000
4.720	10630.920	26.413	463.583	652.399	19.000
4.740	10639.220	39.917	392.917	690.320	21.000
4.760	10646.920	53.763	381.417	691.036	21.000
4.780	10654.300	67.392	328.500	668.335	19.000
4.800	10660.020	80.364	264.750	624.105	19.000
4.820	10665.180	92.322	262.917	576.947	22.000
4.840	10670.420	103.421	231.083	527.188	18.000
4.860	10674.400	113.381	192.167	470.989	20.000
4.880	10678.320	122.310	200.000	425.133	22.000
4.900	10682.260	130.397	174.000	377.845	18.000
4.920	10685.300	137.515	151.333	346.884	20.000
4.940	10688.480	144.337	164.500	328.346	22.000
4.960	10691.760	150.581	150.167	294.328	19.000
4.980	10694.460	156.123	130.583	262.521	19.000
5.000	10697.100	161.165	133.750	245.674	20.000
5.020	10699.860	166.005	145.917	238.910	22.000
5.040	10702.860	170.672	139.500	219.721	18.000
5.060	10705.520	174.840	150.250	209.444	22.000
5.080	10708.900	179.118	165.750	213.802	19.000
5.100	10712.120	183.301	172.667	199.102	21.000
5.120	10715.880	187.048	195.250	179.784	20.000
5.140	10719.920	190.498	213.333	163.653	20.000
5.160	10724.440	193.542	236.583	138.545	19.000
5.180	10729.400	195.977	258.500	104.917	19.000
5.200	10734.940	197.632	316.417	51.255	22.000
5.220	10741.880	198.038	336.083	4.488	18.000
5.240	10748.340	197.726	345.167	-55.743	20.000
5.260	10755.940	195.650	411.917	-147.001	22.000
5.280	10764.580	191.903	430.000	-225.510	20.000
5.300	10772.940	186.736	408.833	-284.376	19.000
5.320	10781.140	180.538	435.583	-344.672	21.000
5.340	10790.300	172.983	446.083	-399.700	19.000
5.360	10798.920	164.600	440.417	-445.167	20.000
5.380	10808.120	155.155	481.917	-495.706	21.000
5.400	10818.000	144.758	478.833	-547.482	19.000
5.420	10827.280	133.222	478.917	-605.502	20.000
5.440	10837.280	120.531	502.417	-664.433	20.000
5.460	10847.420	106.653	531.583	-725.184	21.000
5.480	10858.540	91.666	561.417	-759.918	20.000
5.500	10869.780	76.352	572.833	-780.733	20.000
5.520	10881.420	60.507	577.750	-794.912	19.000
5.540	10892.980	44.756	599.417	-777.741	20.000
5.560	10905.480	29.676	635.500	-720.436	20.000
5.580	10918.400	16.360	673.000	-597.436	21.000
5.600	10932.260	6.244	689.750	-401.522	20.000
5.620	10945.700	0.687	650.083	-143.294	19.000
5.640	10958.340	0.656	635.667	138.741	20.000
5.660	10971.020	6.041	602.167	388.838	20.000
5.680	10982.260	15.782	538.917	571.484	22.000
5.700	10992.540	28.380	473.917	671.522	20.000
5.720	11001.160	42.211	392.500	703.980	19.000
5.740	11008.480	56.308	359.833	705.801	21.000
5.760	11015.580	70.248	328.167	678.157	20.000
5.780	11021.540	83.283	280.083	625.666	20.000
5.800	11026.880	95.257	253.250	573.500	20.000
5.820	11031.660	106.216	220.500	520.488	19.000
5.840	11035.760	116.066	198.083	464.875	20.000
5.860	11039.660	124.839	190.583	413.880	21.000
5.880	11043.340	132.676	172.000	372.381	20.000
5.900	11046.560	139.763	157.500	333.550	20.000
5.920	11049.680	146.085	150.917	307.207	20.000
5.940	11052.580	152.064	139.333	282.424	20.000
5.960	11055.280	157.356	132.750	249.902	20.000
5.980	11057.920	162.149	131.083	234.942	20.000
6.000	11060.540	166.785	131.333	224.535	20.000
6.020	11063.200	171.109	135.750	207.363	20.000
6.040	11066.000	175.153	145.000	205.216	20.000
6.060	11069.020	179.321	157.417	203.070	20.000
6.080	11072.300	183.223	169.167	190.126	20.000
6.100	11075.820	186.939	186.667	182.321	20.000
6.120	11079.800	190.467	210.083	165.994	20.000
6.140	11084.220	193.511	230.417	139.001	19.000
6.160	11089.080	195.962	262.667	102.511	20.000
6.180	11094.760	197.538	299.417	52.946	20.000
6.200	11101.080	198.085	342.833	9.236	21.000
6.220	11108.360	197.788	364.250	-55.939	19.000
6.240	11115.600	195.743	375.417	-139.261	20.000
6.260	11123.500	192.231	415.833	-219.851	21.000
6.280	11132.100	187.048	430.000	-282.945	20.000
6.300	11140.560	180.991	414.833	-332.054	19.000
6.320	11148.880	173.732	442.083	-391.700	21.000
6.340	11158.180	165.396	453.583	-434.759	19.000
6.360	11166.960	156.295	451.167	-488.616	20.000
6.380	11176.340	145.836	474.000	-544.880	20.000
6.400	11185.880	134.518	486.000	-596.526	20.000
6.420	11195.780	121.951	498.000	-654.090	20.000
6.440	11205.840	108.385	516.750	-706.386	20.000
6.460	11216.500	93.758	543.083	-749.056	20.000
6.480	11227.620	78.506	583.917	-779.432	20.000
6.500	11239.680	62.693	587.917	-793.937	20.000
6.520	11251.140	46.926	592.833	-782.554	20.000
6.540	11263.560	31.659	633.333	-732.209	20.000
6.560	11276.380	18.046	651.750	-618.251	20.000
6.580	11289.600	7.384	668.917	-433.784	20.000
6.600	11303.040	1.108	668.500	-183.166	20.000
6.620	11316.300	0.265	669.000	103.681	20.000
6.640	11329.540	5.058	624.667	355.860	20.000
6.660	11341.040	14.097	535.167	543.709	20.000
6.680	11351.040	26.351	469.750	662.676	20.000
6.700	11359.860	40.120	404.167	703.329	20.000
6.720	11367.360	54.201	367.583	702.939	20.000
6.740	11374.600	68.094	336.000	684.922	20.000
6.760	11380.740	81.441	289.583	640.886	20.000
6.780	11386.260	93.665	259.583	588.005	20.000
6.800	11391.140	104.951	230.000	535.254	20.000
6.820	11395.500	115.051	207.500	477.494	20.000
6.840	11399.460	124.074	187.583	424.287	20.000
6.860	11403.020	132.051	169.583	374.788	20.000
6.880	11406.280	139.123	158.583	333.810	20.000
6.900	11409.360	145.492	145.500	309.613	20.000
6.920	11412.120	151.487	135.500	278.587	20.000
6.940	11414.820	156.654	132.750	249.317	20.000
6.960	11417.440	161.556	130.500	238.714	20.000
6.980	11420.060	166.208	131.500	227.201	20.000
7.000	11422.720	170.626	135.500	210.030	20.000
7.020	11425.500	174.684	142.667	208.794	20.000
7.040	11428.440	178.962	151.000	204.501	20.000
7.060	11431.580	182.786	167.500	183.556	20.000
7.080	11435.120	186.361	178.083	176.467	19.000
7.100	11438.740	189.827	193.583	166.059	20.000
7.120	11442.980	192.933	233.083	143.814	21.000
7.140	11448.000	195.509	257.917	111.487	19.000
7.160	11453.260	197.304	272.083	63.549	20.000
7.180	11459.080	198.038	328.667	15.220	21.000
7.200	11466.320	197.913	367.417	-27.319	20.000
7.220	11473.600	196.727	370.333	-113.503	20.000
7.240	11481.240	193.370	403.583	-198.387	21.000
7.260	11489.560	188.937	395.167	-254.390	18.000
7.280	11497.140	183.208	410.583	-312.735	21.000
7.300	11505.960	176.480	415.500	-361.194	19.000
7.320	11513.900	168.768	453.917	-409.782	22.000
7.340	11523.920	160.104	447.417	-454.598	17.000
7.360	11531.880	150.550	457.750	-506.114	23.000
7.380	11542.420	139.841	513.750	-560.426	20.000
7.400	11552.040	128.133	487.667	-613.763	20.000
7.420	11561.900	115.270	457.083	-672.043	17.000
7.440	11570.680	101.283	490.000	-726.030	21.000
7.460	11581.840	86.327	593.750	-763.886	22.000
7.480	11593.960	70.842	597.167	-784.635	20.000
7.500	11605.640	55.075	596.000	-786.977	20.000
7.520	11617.760	39.573	584.833	-758.097	18.000
7.540	11629.200	25.055	598.833	-685.117	20.000
7.560	11642.080	12.629	697.250	-538.831	22.000
7.580	11656.480	3.950	669.583	-322.167	18.000
7.600	11668.660	0.047	607.250	-56.394	19.000
7.620	11681.140	1.717	628.250	212.501	20.000
7.640	11693.620	8.305	615.500	443.736	22.000
7.660	11705.380	19.014	531.667	603.486	20.000
7.680	11714.860	31.924	451.500	679.133	21.000
7.700	11723.460	45.833	369.417	704.695	17.000
7.720	11729.900	59.867	335.250	693.117	22.000
7.740	11737.040	73.433	334.917	665.213	21.000
7.760	11743.040	86.374	276.250	622.414	20.000
7.780	11748.200	98.238	244.583	563.938	20.000
7.800	11752.880	108.932	221.667	507.349	20.000
7.820	11757.060	118.548	195.417	452.647	19.000
7.840	11760.720	127.087	171.417	406.140	19.000
7.860	11764.020	134.846	167.167	367.308	21.000
7.880	11767.420	141.839	164.167	339.078	20.000
7.900	11770.540	148.411	150.833	310.394	20.000
7.920	11773.480	154.234	143.417	275.205	20.000
7.940	11776.300	159.511	138.833	258.228	20.000
7.960	11779.080	164.584	144.083	242.942	21.000
7.980	11782.020	169.236	138.333	227.722	18.000
8.000	11784.660	173.732	139.667	219.981	20.000
8.020	11787.740	178.041	168.333	212.176	22.000
8.040	11791.320	182.224	181.000	206.907	20.000
8.060	11794.900	186.252	175.417	189.215	18.000
8.080	11798.500	189.764	201.917	167.620	21.000
8.100	11803.080	192.949	247.917	147.326	21.000
8.120	11808.300	195.571	268.417	112.202	19.000
8.140	11813.800	197.351	285.917	62.313	19.000
8.160	11819.840	198.054	324.333	13.789	20.000
8.180	11826.780	197.851	362.250	-40.718	20.000
8.200	11834.300	196.258	397.667	-127.488	21.000
8.220	11842.540	192.762	403.417	-210.550	19.000
8.240	11850.480	187.938	420.917	-275.009	21.000
8.260	11859.400	181.818	445.000	-330.818	20.000
8.280	11868.160	174.716	444.583	-385.651	20.000
8.300	11877.180	166.379	443.083	-440.874	19.000
8.320	11886.020	156.982	470.833	-522.765	21.000
8.340	11895.940	145.758	482.000	-542.734	19.000
8.360	11905.240	135.205	476.000	-576.232	20.000
8.380	11915.260	122.420	535.417	-671.262	22.000
8.400	11926.340	108.573	519.500	-716.338	18.000
8.420	11936.240	93.805	548.500	-761.544	22.000
8.440	11948.400	78.210	608.500	-790.945	20.000
8.460	11960.100	62.287	561.333	-803.108	18.000
8.480	11971.180	46.255	587.250	-791.920	20.000
8.500	11983.760	30.909	643.417	-735.722	20.000
8.520	11996.740	17.250	660.750	-613.828	20.000
8.540	12010.160	6.822	674.667	-419.344	20.000
8.560	12023.800	0.874	714.333	-161.051	22.000
8.580	12038.320	0.546	678.333	125.016	19.000
8.600	12050.580	5.698	576.417	381.423	19.000
8.620	12061.600	15.408	527.750	576.557	20.000
8.640	12071.700	28.224	476.000	686.092	20.000
8.660	12080.620	42.383	418.500	721.477	20.000
8.680	12088.500	56.839	372.250	722.908	20.000
8.700	12095.560	71.169	333.667	706.777	20.000
8.720	12101.880	85.016	299.333	679.588	20.000
8.740	12107.580	98.176	273.167	620.137	20.000
8.760	12112.820	109.790	247.417	557.499	20.000
8.780	12117.520	120.531	231.000	507.545	21.000
8.800	12122.020	130.053	205.167	446.923	19.000
8.820	12125.740	138.467	179.750	397.749	20.000
8.840	12129.340	146.023	182.250	359.112	22.000
8.860	12132.940	152.829	163.667	317.028	19.000
8.880	12135.880	158.761	142.583	284.766	19.000
8.900	12138.780	164.288	148.583	264.797	20.000
8.920	12141.840	169.345	155.500	240.406	21.000
8.940	12144.960	173.951	153.000	224.470	19.000
8.960	12148.000	178.368	157.667	217.120	20.000
8.980	12151.340	182.599	176.833	201.444	21.000
9.000	12155.040	186.424	186.500	186.939	19.000
9.020	12158.840	190.045	203.083	166.905	20.000
9.040	12163.240	193.074	233.500	144.269	20.000
9.060	12168.200	195.743	264.750	113.048	20.000
9.080	12173.880	197.382	308.250	34.929	21.000
9.100	12180.420	197.382	328.333	11.903	19.000
9.120	12187.020	197.804	351.167	-17.692	20.000
9.140	12194.520	196.258	383.917	-132.171	20.000
9.160	12202.400	192.637	423.333	-216.014	21.000
9.180	12211.320	187.766	442.250	-273.839	21.000
9.200	12219.820	181.709	404.750	-330.688	18.000
9.220	12227.740	174.559	416.667	-386.041	20.000
9.240	12236.620	166.348	452.500	-422.596	20.000
9.260	12245.720	157.528	461.000	-487.185	20.000
9.280	12255.060	146.882	472.250	-547.547	20.000
9.300	12264.620	135.751	485.583	-580.200	20.000
9.320	12274.480	123.543	497.917	-641.602	20.000
9.340	12284.540	110.071	509.250	-705.476	20.000
9.360	12294.920	95.429	529.750	-751.137	20.000
9.380	12305.920	80.146	595.417	-777.676	21.000
9.400	12318.380	64.410	585.000	-793.481	19.000
9.420	12329.320	48.565	573.333	-786.652	20.000
9.440	12341.720	33.220	649.417	-737.738	20.000
9.460	12355.040	19.420	669.417	-634.447	20.000
9.480	12368.280	8.305	650.250	-458.891	20.000
9.500	12381.140	1.514	655.167	-210.355	20.000
9.520	12394.460	0.109	656.833	74.802	20.000
9.540	12407.240	4.340	630.917	330.558	20.000
9.560	12419.440	12.957	562.250	527.643	20.000
9.580	12429.560	24.962	460.083	649.863	20.000
9.600	12438.080	38.449	406.583	690.581	20.000
9.620	12445.940	52.312	371.083	693.638	20.000
9.640	12452.900	66.018	327.167	671.262	20.000
9.660	12459.060	79.037	289.500	629.894	20.000
9.680	12464.520	91.151	258.250	580.590	20.000
9.700	12469.420	102.204	231.500	520.423	20.000
9.720	12473.800	112.007	207.167	468.127	20.000
9.740	12477.740	120.983	188.667	425.783	19.000
9.760	12481.360	129.038	171.417	381.293	21.000
9.780	12484.620	136.266	157.667	341.745	20.000
9.800	12487.700	142.760	150.333	311.304	20.000
9.820	12490.620	148.739	138.833	283.921	20.000
9.840	12493.280	154.109	132.750	252.634	20.000
9.860	12495.940	158.917	127.417	234.877	20.000
9.880	12498.400	163.554	125.750	225.380	20.000
9.900	12501.000	167.925	129.417	212.436	20.000
9.920	12503.580	172.077	131.833	203.915	20.000
9.940	12506.320	176.120	142.500	203.720	20.000
9.960	12509.320	180.179	161.167	192.923	20.000
9.980	12512.720	183.848	167.583	185.313	20.000
10.000	12516.100	187.594	190.333	179.784	20.000
10.020	12520.340	190.966	211.583	161.051	20.000
10.040	12524.600	193.979	239.333	134.513	20.000
