%Time (s)	Wheel Position (deg)	Slide position (mm)	Wheel Speed (deg/s)	Slide Speed (mm/s)	Actual sample time (ms)	%2/9/20163:12 PM
0.000	5742.780	177.869	933.250	-761.870	20.000
0.020	5761.440	160.822	912.667	-943.475	19.000
0.040	5779.440	140.309	920.500	-1102.184	20.000
0.060	5798.460	116.846	963.083	-1247.299	20.000
0.080	5818.020	90.589	1014.667	-1372.965	21.000
0.100	5838.940	62.412	1047.250	-1433.327	20.000
0.120	5859.760	34.344	1038.917	-1336.345	19.000
0.140	5881.040	10.881	1147.333	-936.905	21.000
0.160	5905.480	-0.937	1229.167	-159.750	20.000
0.180	5929.340	5.027	1154.750	696.630	20.000
0.200	5951.160	25.851	999.083	1374.201	20.000
0.220	5969.340	57.994	851.750	1724.663	20.000
0.240	5985.700	92.993	792.333	1782.943	20.000
0.260	6001.240	128.242	752.667	1702.417	19.000
0.280	6016.200	159.932	775.667	1455.572	20.000
0.300	6032.700	184.925	881.583	952.776	21.000
0.320	6051.220	197.117	939.250	283.921	20.000
0.340	6069.820	197.055	910.250	-231.299	19.000
0.360	6087.740	188.828	908.167	-593.599	20.000
0.380	6106.400	174.122	962.833	-830.297	21.000
0.400	6125.900	156.123	939.250	-987.640	19.000
0.420	6144.020	134.690	923.083	-1146.675	20.000
0.440	6163.280	110.399	1006.500	-1283.269	21.000
0.460	6183.900	83.533	997.250	-1403.927	19.000
0.480	6203.380	54.856	1036.250	-1440.417	21.000
0.500	6225.480	27.288	1098.667	-1271.431	19.000
0.520	6247.220	6.135	1130.417	-758.617	20.000
0.540	6270.940	-1.093	1242.333	95.161	21.000
0.560	6295.760	9.882	1131.000	927.083	19.000
0.580	6315.640	34.422	926.667	1493.038	20.000
0.600	6333.380	67.751	840.083	1769.739	20.000
0.620	6349.500	103.530	783.167	1784.959	20.000
0.640	6365.020	138.015	775.750	1643.552	20.000
0.660	6380.800	168.143	810.167	1345.386	20.000
0.680	6397.600	190.201	874.833	761.089	20.000
0.700	6415.700	198.132	918.500	99.258	20.000
0.720	6434.260	195.259	953.250	-357.681	20.000
0.740	6453.640	184.784	958.333	-666.839	20.000
0.760	6472.340	169.267	907.000	-871.015	20.000
0.780	6490.340	150.238	944.583	-1036.814	20.000
0.800	6510.180	127.930	988.667	-1185.962	20.000
0.820	6529.660	102.922	982.000	-1320.474	20.000
0.840	6549.620	75.369	1014.250	-1427.018	21.000
0.860	6570.180	46.661	1025.250	-1415.635	19.000
0.880	6590.920	20.325	1093.000	-1164.692	20.000
0.900	6614.000	2.326	1189.333	-540.262	20.000
0.920	6637.860	0.219	1164.000	341.420	19.000
0.940	6660.260	15.470	1106.250	1129.438	22.000
0.960	6681.640	43.538	963.000	1606.151	19.000
0.980	6698.740	77.820	806.833	1784.114	21.000
1.000	6714.580	113.537	777.417	1764.795	19.000
1.020	6730.140	147.272	786.167	1584.491	20.000
1.040	6746.260	175.605	834.750	1207.296	21.000
1.060	6763.500	194.088	868.500	568.036	18.000
1.080	6781.120	198.319	931.667	-67.907	21.000
1.100	6800.580	192.652	965.333	-470.209	20.000
1.120	6819.300	180.413	909.833	-736.892	19.000
1.140	6837.260	163.694	918.167	-928.710	20.000
1.160	6856.200	143.510	952.667	-1087.679	20.000
1.180	6875.420	120.312	999.667	-1230.322	21.000
1.200	6895.940	94.398	995.083	-1361.713	20.000
1.220	6915.260	66.080	993.500	-1484.192	20.000
1.240	6936.100	36.467	1075.917	-1371.469	19.000
1.260	6958.260	13.066	1139.167	-975.347	21.000
1.280	6981.720	-0.562	1229.417	-252.374	20.000
1.300	7006.820	3.934	1221.917	641.732	20.000
1.320	7029.520	23.978	1009.167	1332.182	20.000
1.340	7047.400	55.371	849.667	1728.240	20.000
1.360	7064.160	91.214	804.917	1823.401	20.000
1.380	7080.020	127.040	826.750	1740.729	21.000
1.400	7097.300	159.714	855.667	1509.820	20.000
1.420	7114.100	185.596	848.250	962.468	19.000
1.440	7131.440	197.304	884.833	256.862	19.000
1.460	7149.560	196.774	932.917	-274.489	20.000
1.480	7168.620	187.485	948.583	-615.129	20.000
1.500	7187.640	172.920	1001.000	-842.590	22.000
1.520	7208.420	154.109	1014.833	-1026.082	20.000
1.540	7227.720	131.989	909.583	-1205.215	18.000
1.560	7245.700	106.294	995.667	-1312.149	22.000
1.580	7267.580	79.646	1078.000	-1411.342	20.000
1.600	7288.340	50.282	1052.833	-1471.964	20.000
1.620	7310.120	22.620	1125.750	-1231.428	20.000
1.640	7333.340	3.356	1201.167	-611.161	20.000
1.660	7357.400	-0.219	1125.833	284.506	18.000
1.680	7378.300	14.253	1057.500	1087.939	20.000
1.700	7399.600	41.509	973.083	1591.841	20.000
1.720	7417.140	76.071	872.083	1808.050	22.000
1.740	7434.580	112.288	784.000	1792.244	18.000
1.760	7448.840	146.554	743.500	1607.062	20.000
1.780	7465.040	175.231	834.833	1220.175	20.000
1.800	7482.380	193.917	954.250	578.964	22.000
1.820	7502.540	198.350	934.250	-66.281	18.000
1.840	7519.820	192.559	946.417	-475.347	22.000
1.860	7540.340	180.273	944.833	-741.641	18.000
1.880	7557.640	163.382	949.167	-939.962	22.000
1.900	7578.340	142.932	968.583	-1102.444	18.000
1.920	7596.020	119.422	892.500	-1246.453	19.000
1.940	7614.920	93.181	999.750	-1384.934	21.000
1.960	7636.080	64.519	1109.750	-1454.532	22.000
1.980	7658.880	36.092	1134.000	-1365.420	20.000
2.000	7681.360	11.802	1149.583	-983.217	20.000
2.020	7705.000	-0.859	1206.917	-187.329	20.000
2.040	7729.140	4.886	1183.167	695.069	20.000
2.060	7751.460	25.727	995.500	1365.355	19.000
2.080	7769.080	57.666	836.917	1746.648	20.000
2.100	7785.600	93.696	802.833	1826.848	20.000
2.120	7801.400	129.444	783.583	1723.817	20.000
2.140	7817.340	161.509	839.583	1467.541	21.000
2.160	7834.940	186.455	881.417	923.116	19.000
2.180	7852.420	197.570	878.083	224.925	19.000
2.200	7870.500	196.383	979.083	-293.677	22.000
2.220	7891.080	186.954	971.583	-626.576	19.000
2.240	7909.240	172.015	944.500	-857.876	21.000
2.260	7929.160	153.001	989.583	-1040.131	20.000
2.280	7948.460	130.646	942.750	-1186.482	19.000
2.300	7967.340	105.638	1002.167	-1325.288	21.000
2.320	7988.420	77.866	1025.667	-1439.571	19.000
2.340	8008.320	48.830	1027.833	-1444.059	20.000
2.360	8030.140	21.683	1165.417	-1212.305	21.000
2.380	8054.420	2.747	1191.500	-578.834	19.000
2.400	8077.520	0.156	1182.667	334.200	20.000
2.420	8101.400	15.533	1132.500	1136.788	21.000
2.440	8122.140	43.757	952.583	1627.486	20.000
2.460	8139.580	78.725	783.833	1821.124	18.000
2.480	8154.340	115.098	771.583	1790.943	21.000
2.500	8170.880	149.192	827.833	1601.273	20.000
2.520	8187.360	177.666	846.333	1179.392	20.000
2.540	8205.060	194.963	943.417	509.366	21.000
2.560	8224.660	198.210	952.917	-123.715	19.000
2.580	8242.860	191.294	900.583	-529.985	19.000
2.600	8261.060	178.009	927.500	-780.472	20.000
2.620	8280.120	160.557	982.750	-964.419	21.000
2.640	8300.140	139.623	993.750	-1125.340	20.000
2.660	8319.640	115.660	953.000	-1271.561	19.000
2.680	8338.720	88.919	1012.750	-1403.016	21.000
2.700	8360.040	60.101	1038.667	-1456.418	19.000
2.720	8380.280	31.877	1061.167	-1332.117	20.000
2.740	8402.840	8.867	1158.583	-884.414	20.000
2.760	8426.440	-1.249	1230.833	-41.368	21.000
2.780	8451.260	7.353	1162.333	810.328	19.000
2.800	8472.240	29.692	967.000	1407.374	20.000
2.820	8490.280	61.912	847.917	1738.062	20.000
2.840	8506.520	97.458	784.917	1790.228	20.000
2.860	8522.000	132.348	770.667	1680.042	20.000
2.880	8537.620	163.523	798.167	1410.366	20.000
2.900	8554.120	187.220	858.167	880.706	20.000
2.920	8571.920	197.944	912.917	208.338	20.000
2.940	8590.440	196.352	931.833	-316.508	20.000
2.960	8609.080	186.580	932.917	-619.552	20.000
2.980	8627.760	172.265	937.083	-820.670	20.000
3.000	8646.580	153.938	943.583	-1007.219	20.000
3.020	8665.540	132.176	955.583	-1161.700	20.000
3.040	8684.860	107.605	977.167	-1299.530	20.000
3.060	8704.660	80.411	1002.167	-1414.659	20.000
3.080	8725.020	51.703	1037.583	-1434.563	20.000
3.100	8746.300	24.478	1098.333	-1237.347	20.000
3.120	8768.960	4.433	1162.500	-676.206	20.000
3.140	8792.580	-0.781	1199.583	195.655	20.000
3.160	8816.260	11.927	1115.250	997.592	20.000
3.180	8836.800	37.466	969.250	1521.007	21.000
3.200	8855.060	70.982	828.917	1768.243	19.000
3.220	8870.360	106.621	754.667	1772.861	20.000
3.240	8885.800	140.793	777.000	1630.413	20.000
3.260	8901.600	170.469	813.417	1273.707	20.000
3.280	8918.500	190.467	877.833	704.955	20.000
3.300	8936.740	198.319	955.417	77.468	21.000
3.320	8956.240	194.401	938.750	-402.887	19.000
3.340	8974.220	183.348	913.167	-690.125	20.000
3.360	8993.040	167.394	939.750	-899.179	20.000
3.380	9011.980	147.896	1006.000	-1011.056	22.000
3.400	9032.780	126.588	966.833	-1211.785	18.000
3.420	9050.700	99.550	935.250	-1400.024	20.000
3.440	9070.760	71.450	1020.250	-1434.823	20.000
3.460	9091.360	42.805	1057.500	-1403.927	20.000
3.480	9113.200	16.984	1124.250	-1110.445	20.000
3.500	9136.420	0.765	1218.083	-413.034	21.000
3.520	9161.420	1.639	1237.000	481.136	20.000
3.540	9184.780	19.170	1043.250	1224.143	19.000
3.560	9203.200	48.752	871.917	1664.822	20.000
3.580	9220.280	83.877	816.417	1808.180	20.000
3.600	9236.160	119.734	803.583	1757.836	21.000
3.620	9252.520	153.063	796.500	1554.896	19.000
3.640	9268.260	180.367	828.083	1097.631	20.000
3.660	9285.920	195.759	916.000	428.125	20.000
3.680	9304.620	197.866	945.583	-166.580	20.000
3.700	9323.560	190.311	946.333	-550.669	20.000
3.720	9342.440	176.761	944.000	-791.855	20.000
3.740	9361.360	159.074	949.500	-972.550	20.000
3.760	9380.460	138.015	961.000	-1134.511	20.000
3.780	9399.840	113.756	978.250	-1297.188	20.000
3.800	9419.640	86.499	1003.250	-1400.544	20.000
3.820	9440.020	58.275	1033.417	-1432.481	20.000
3.840	9461.120	30.300	1089.750	-1311.628	20.000
3.860	9483.660	7.961	1157.000	-841.745	20.000
3.880	9507.220	-1.218	1200.500	2.212	20.000
3.900	9531.140	8.149	1157.250	849.615	20.000
3.920	9552.840	31.268	991.583	1439.441	20.000
3.940	9570.880	63.942	842.917	1753.282	20.000
3.960	9587.160	99.659	810.417	1792.700	21.000
3.980	9603.400	134.487	776.667	1671.261	19.000
4.000	9618.500	165.380	781.500	1394.560	20.000
4.020	9635.200	188.609	897.917	829.906	20.000
4.040	9654.000	197.944	922.667	155.717	20.000
4.060	9671.900	195.821	912.500	-326.720	20.000
4.080	9690.660	185.705	942.417	-696.565	20.000
4.100	9709.480	169.111	944.833	-864.575	20.000
4.120	9728.460	151.440	950.167	-990.892	19.000
4.140	9747.540	129.195	964.583	-1189.279	20.000
4.160	9767.100	104.186	988.583	-1323.596	21.000
4.180	9787.100	76.508	1008.167	-1434.693	19.000
4.200	9807.680	47.613	1082.417	-1428.644	21.000
4.220	9830.220	20.934	1111.417	-1186.872	19.000
4.240	9852.280	2.466	1176.917	-557.434	21.000
4.260	9877.160	0.187	1242.000	339.144	20.000
4.280	9900.740	15.423	1067.917	1120.592	19.000
4.300	9919.820	43.195	897.417	1601.013	20.000
4.320	9937.260	77.585	850.750	1785.284	21.000
4.340	9953.940	113.240	804.000	1771.820	20.000
4.360	9969.520	147.319	759.750	1600.492	20.000
4.380	9984.940	175.824	835.333	1206.321	20.000
4.400	10002.920	194.135	899.333	557.044	19.000
4.420	10020.660	198.257	911.750	-51.971	20.000
4.440	10039.440	193.089	944.917	-481.917	20.000
4.460	10058.280	179.930	940.917	-765.772	20.000
4.480	10077.100	163.179	945.000	-931.767	20.000
4.500	10096.120	142.760	948.333	-1099.192	20.000
4.520	10115.360	119.360	1029.000	-1242.160	22.000
4.540	10136.760	93.181	989.167	-1379.275	18.000
4.560	10155.260	64.660	1026.500	-1452.515	22.000
4.580	10177.920	36.186	1080.250	-1363.534	18.000
4.600	10198.280	12.005	1081.583	-983.022	20.000
4.620	10221.660	-0.812	1200.250	-199.427	20.000
4.640	10245.600	4.605	1189.083	671.848	20.000
4.660	10268.420	24.852	1038.333	1331.402	20.000
4.680	10286.980	56.074	857.917	1709.897	20.000
4.700	10303.500	91.401	836.417	1793.415	22.000
4.720	10320.340	126.619	762.833	1713.020	18.000
4.740	10334.560	158.793	796.833	1475.996	22.000
4.760	10352.380	184.082	849.167	974.566	18.000
4.780	10368.580	196.867	910.667	316.183	22.000
4.800	10388.700	197.320	962.583	-229.933	19.000
4.820	10406.560	188.812	899.417	-583.517	20.000
4.840	10425.200	174.825	960.000	-805.450	21.000
4.860	10444.720	156.950	965.333	-981.396	20.000
4.880	10463.580	135.735	921.833	-1136.202	19.000
4.900	10481.920	111.632	945.250	-1273.642	20.000
4.920	10501.560	84.969	996.500	-1392.739	20.000
4.940	10521.700	56.495	1023.417	-1434.433	20.000
4.960	10542.660	28.895	1080.083	-1280.537	20.000
4.980	10565.100	7.306	1181.333	-802.783	21.000
5.000	10589.540	-1.218	1225.833	21.140	20.000
5.020	10613.220	8.258	1100.833	852.412	19.000
5.040	10633.420	31.440	966.417	1438.596	21.000
5.060	10651.940	63.988	841.500	1740.599	19.000
5.080	10667.360	99.362	757.333	1775.528	20.000
5.100	10682.780	133.893	768.583	1657.471	20.000
5.120	10698.380	164.553	819.917	1384.413	21.000
5.140	10715.640	187.719	884.167	845.517	20.000
5.160	10733.460	197.710	884.917	191.882	19.000
5.180	10751.220	196.227	935.750	-304.800	22.000
5.200	10770.640	186.564	931.667	-632.235	19.000
5.220	10788.500	171.703	932.500	-840.119	21.000
5.240	10808.100	153.251	974.083	-1012.032	20.000
5.260	10827.100	131.349	927.333	-1169.310	19.000
5.280	10845.660	106.621	986.000	-1307.400	21.000
5.300	10866.420	79.303	1010.583	-1416.415	19.000
5.320	10886.020	50.657	1010.500	-1429.620	20.000
5.340	10907.440	23.572	1139.833	-1226.354	21.000
5.360	10931.300	3.887	1206.167	-646.610	20.000
5.380	10955.100	-0.531	1169.333	237.413	19.000
5.400	10977.820	13.019	1110.083	1048.522	21.000
5.420	10998.960	39.651	944.833	1563.937	19.000
5.440	11015.760	73.698	803.500	1785.805	20.000
5.460	11031.860	109.556	808.833	1776.829	21.000
5.480	11048.180	143.666	807.833	1616.688	20.000
5.500	11064.200	172.952	797.500	1269.804	19.000
5.520	11080.600	192.855	897.333	638.089	21.000
5.540	11099.820	198.319	934.333	-15.676	19.000
5.560	11117.780	193.464	940.750	-442.565	21.000
5.580	11137.400	181.584	941.583	-720.761	19.000
5.600	11155.460	165.193	946.250	-917.522	21.000
5.620	11175.280	145.133	958.583	-1082.020	19.000
5.640	11193.720	122.060	945.833	-1225.444	20.000
5.660	11213.420	96.209	995.500	-1364.119	20.000
5.680	11233.580	67.907	1045.667	-1448.352	21.000
5.700	11255.240	39.292	1098.833	-1384.478	20.000
5.720	11277.320	14.331	1100.583	-1043.774	19.000
5.740	11299.620	-0.125	1191.917	-302.784	21.000
5.760	11324.480	3.075	1194.667	577.273	19.000
5.780	11346.460	21.917	1018.000	1271.431	20.000
5.800	11365.320	52.124	877.917	1675.944	20.000
5.820	11382.020	87.124	820.250	1790.553	21.000
5.840	11398.260	122.498	766.750	1729.411	19.000
5.860	11413.120	155.171	791.167	1510.535	21.000
5.880	11430.100	181.444	845.083	1053.270	19.000
5.900	11446.860	196.165	879.333	395.733	20.000
5.920	11465.360	197.663	939.750	-186.288	20.000
5.940	11484.160	189.952	941.000	-551.450	20.000
5.960	11502.960	176.448	937.500	-788.993	20.000
5.980	11521.820	158.793	972.917	-972.745	21.000
6.000	11541.640	137.749	952.250	-1127.291	19.000
6.020	11560.100	113.818	974.583	-1267.203	21.000
6.040	11580.660	87.202	1001.667	-1395.991	19.000
6.060	11600.080	58.540	999.833	-1447.637	20.000
6.080	11621.080	30.566	1083.500	-1310.718	20.000
6.100	11643.500	8.164	1181.000	-849.485	21.000
6.120	11667.980	-1.233	1229.917	-5.139	20.000
6.140	11691.840	8.024	1122.583	836.931	19.000
6.160	11712.620	30.675	981.500	1403.276	20.000
6.180	11731.200	62.568	860.750	1735.135	20.000
6.200	11747.300	98.332	776.500	1787.951	20.000
6.220	11762.700	132.847	770.333	1662.740	20.000
6.240	11778.260	163.804	771.750	1401.000	20.000
6.260	11794.000	187.282	860.167	860.673	20.000
6.280	11812.480	197.570	908.167	206.712	20.000
6.300	11830.020	196.414	895.583	-284.311	20.000
6.320	11848.460	187.251	925.333	-604.006	20.000
6.340	11866.900	172.967	923.833	-814.751	20.000
6.360	11885.440	154.952	926.500	-989.266	20.000
6.380	11904.140	133.566	966.417	-1140.170	20.000
6.400	11924.020	109.463	992.750	-1276.959	20.000
6.420	11943.600	82.690	962.667	-1391.113	20.000
6.440	11962.860	54.419	993.667	-1423.310	20.000
6.460	11983.820	27.085	1117.833	-1257.511	20.000
6.480	12007.300	6.213	1186.167	-753.349	20.000
6.500	12030.840	-1.155	1188.083	76.102	20.000
6.520	12054.340	9.304	1119.250	906.204	20.000
6.540	12075.000	33.548	929.500	1472.809	19.000
6.560	12091.960	66.346	833.167	1743.396	21.000
6.580	12108.720	101.704	802.750	1772.731	20.000
6.600	12124.140	136.141	769.750	1647.064	20.000
6.620	12139.780	166.457	782.000	1363.534	19.000
6.640	12155.700	189.077	841.833	800.962	20.000
6.660	12173.520	197.944	909.083	143.814	20.000
6.680	12192.020	195.806	981.917	-329.322	22.000
6.700	12212.160	185.768	925.000	-643.943	18.000
6.720	12229.160	170.704	901.333	-863.079	21.000
6.740	12248.640	151.674	971.583	-1016.065	20.000
6.760	12267.540	130.194	926.667	-1152.789	19.000
6.780	12286.020	105.544	952.417	-1304.083	20.000
6.800	12305.800	78.335	1004.417	-1412.057	20.000
6.820	12326.140	49.783	1029.500	-1420.253	20.000
6.840	12347.440	22.995	1164.583	-1208.272	22.000
6.860	12372.060	3.684	1161.250	-629.048	18.000
6.880	12393.660	-0.468	1122.833	244.438	20.000
6.900	12417.200	13.051	1168.500	1030.440	22.000
6.920	12439.080	39.261	931.583	1579.873	18.000
6.940	12454.980	74.214	813.833	1808.115	22.000
6.960	12472.320	109.666	830.500	1719.459	20.000
6.980	12487.800	142.339	732.333	1572.978	18.000
7.000	12502.320	171.593	776.083	1290.424	20.000
7.020	12519.220	192.122	879.250	672.303	20.000
7.040	12537.420	198.225	977.250	17.757	22.000
7.060	12557.580	194.042	932.500	-412.059	18.000
7.080	12574.660	182.693	880.583	-697.410	20.000
7.100	12593.340	166.754	936.417	-890.593	20.000
7.120	12612.160	147.303	1000.000	-1055.677	22.000
7.140	12632.840	124.667	954.417	-1201.247	18.000
7.160	12650.660	99.362	978.917	-1337.126	22.000
7.180	12672.280	71.528	1066.250	-1429.554	20.000
7.200	12692.740	43.101	1022.500	-1385.909	19.000
7.220	12713.580	17.671	1063.333	-1105.501	19.000
7.240	12735.660	1.124	1184.667	-448.549	21.000
7.260	12760.440	1.030	1217.667	430.141	20.000
7.280	12783.300	17.625	1051.833	1181.278	20.000
7.300	12802.460	46.442	891.583	1626.770	20.000
7.320	12819.380	80.911	804.917	1797.708	20.000
7.340	12835.100	116.893	791.500	1750.095	21.000
7.360	12851.240	149.785	803.917	1543.253	20.000
7.380	12867.380	177.416	834.083	1160.789	20.000
7.400	12884.680	194.713	877.417	501.821	19.000
7.420	12902.440	197.726	909.917	-103.551	20.000
7.440	12921.140	191.825	966.417	-483.283	21.000
7.460	12940.680	179.165	937.583	-754.650	19.000
7.480	12958.660	162.211	914.917	-935.539	20.000
7.500	12977.580	141.933	951.417	-1095.354	20.000
7.520	12996.760	118.501	991.250	-1242.876	21.000
7.540	13017.140	92.369	1014.250	-1375.177	20.000
7.560	13037.240	63.988	1014.417	-1439.311	20.000
7.580	13058.000	35.874	1075.750	-1345.972	20.000
7.600	13080.180	11.973	1111.917	-970.663	19.000
7.620	13102.480	-0.718	1157.167	-209.249	20.000
7.640	13126.220	4.215	1175.833	646.545	20.000
7.660	13148.600	24.025	1020.500	1307.465	20.000
7.680	13166.940	54.747	855.000	1688.173	20.000
7.700	13183.320	89.746	787.833	1781.512	20.000
7.720	13198.780	124.824	762.667	1711.654	20.000
7.740	13214.240	157.075	813.000	1480.680	21.000
7.760	13231.260	182.583	844.333	1009.625	19.000
7.780	13248.040	196.461	880.250	365.227	20.000
7.800	13266.540	197.601	933.500	-202.354	20.000
7.820	13285.220	189.561	960.167	-563.028	21.000
7.840	13304.660	175.949	933.083	-788.798	19.000
7.860	13322.560	158.371	908.583	-968.322	20.000
7.880	13341.320	137.390	945.000	-1125.665	20.000
7.900	13360.440	113.490	996.000	-1262.324	21.000
7.920	13380.900	87.061	988.000	-1382.722	19.000
7.940	13400.160	58.696	1018.833	-1435.083	21.000
7.960	13421.960	30.894	1116.417	-1303.107	20.000
7.980	13444.400	8.570	1120.667	-853.973	19.000
8.000	13466.880	-1.202	1160.500	-49.239	20.000
8.020	13490.560	6.884	1171.917	794.652	21.000
8.040	13512.720	29.223	977.167	1404.902	19.000
8.060	13529.860	61.257	838.833	1727.329	21.000
8.080	13546.760	96.599	785.167	1780.146	19.000
8.100	13561.560	131.333	768.083	1677.961	21.000
8.120	13577.880	162.602	827.417	1420.513	20.000
8.140	13594.480	186.564	836.333	892.545	19.000
8.160	13611.540	197.523	892.583	228.177	20.000
8.180	13630.120	196.493	934.417	-284.376	20.000
8.200	13648.780	187.267	953.417	-611.226	21.000
8.220	13668.140	172.764	954.583	-833.614	20.000
8.240	13686.880	154.390	937.833	-978.144	20.000
8.260	13705.820	133.550	955.333	-1155.196	20.000
8.280	13725.140	108.307	977.500	-1316.376	20.000
8.300	13744.940	81.348	1004.500	-1403.602	20.000
8.320	13765.240	52.702	1003.500	-1429.554	19.000
8.340	13785.540	25.570	1096.833	-1240.990	21.000
8.360	13809.100	5.183	1193.750	-709.509	20.000
8.380	13832.580	-0.968	1156.667	142.188	19.000
8.400	13855.060	10.678	1084.333	949.329	20.000
8.420	13875.620	35.405	951.417	1485.948	20.000
8.440	13893.180	68.328	826.667	1743.461	20.000
8.460	13909.200	103.609	801.000	1765.901	21.000
8.480	13925.300	137.874	772.000	1638.023	19.000
8.500	13940.340	167.956	780.083	1343.175	20.000
8.520	13957.020	189.983	896.250	766.488	21.000
8.540	13975.740	198.116	911.000	103.291	19.000
8.560	13993.400	195.197	923.833	-356.901	20.000
8.580	14012.740	184.878	957.250	-652.009	20.000
8.600	14031.300	169.736	900.750	-856.120	20.000
8.620	14049.200	150.909	942.250	-1024.521	20.000
8.640	14068.900	128.914	957.250	-1170.481	20.000
8.660	14087.400	104.186	945.667	-1301.937	20.000
8.680	14107.160	76.867	1027.167	-1460.256	21.000
8.700	14128.320	47.004	1068.333	-1411.407	19.000
8.720	14149.740	21.917	1072.167	-1133.731	20.000
8.740	14171.640	3.325	1179.417	-604.721	20.000
8.760	14196.400	-0.468	1194.167	251.788	20.000
8.780	14218.540	13.051	1044.917	1031.350	20.000
8.800	14238.340	39.292	945.250	1569.596	20.000
8.820	14256.380	73.886	845.250	1797.188	20.000
8.840	14272.260	109.509	750.167	1764.340	20.000
8.860	14287.040	143.463	776.917	1604.005	20.000
8.880	14303.580	172.468	840.917	1267.593	20.000
8.900	14320.480	192.590	856.250	652.009	20.000
8.920	14337.960	198.303	901.417	-4.943	20.000
8.940	14356.580	193.667	963.333	-425.133	20.000
8.960	14376.040	182.271	933.250	-695.589	20.000
8.980	14393.920	166.364	902.167	-892.024	20.000
9.000	14412.700	146.819	997.750	-1059.580	21.000
9.020	14433.340	124.137	986.917	-1204.565	19.000
9.040	14451.940	98.754	926.500	-1338.882	20.000
9.060	14470.980	70.935	980.667	-1427.538	20.000
9.080	14491.460	42.539	1079.250	-1388.836	20.000
9.100	14514.140	17.031	1187.417	-1099.907	21.000
9.120	14538.200	0.843	1144.083	-421.685	19.000
9.140	14559.920	1.343	1126.583	455.183	20.000
9.160	14583.120	18.233	1099.417	1184.141	20.000
9.180	14603.120	46.910	909.500	1618.184	20.000
9.200	14619.940	81.192	823.000	1775.983	21.000
9.220	14636.200	116.644	747.000	1745.152	18.000
9.240	14650.240	149.863	737.333	1551.904	20.000
9.260	14666.240	177.447	829.833	1170.156	20.000
9.280	14683.300	195.166	879.333	516.195	20.000
9.300	14701.520	198.225	971.333	-109.991	22.000
9.320	14721.440	192.200	912.250	-473.201	18.000
9.340	14738.240	180.117	910.000	-719.591	22.000
9.360	14758.120	163.866	976.583	-901.586	20.000
9.380	14776.560	144.259	866.417	-1057.303	18.000
9.400	14793.620	121.717	949.583	-1191.621	22.000
9.420	14814.300	96.677	961.833	-1321.710	18.000
9.440	14832.140	69.202	978.750	-1407.374	22.000
9.460	14853.880	41.353	1091.417	-1345.972	20.000
9.480	14875.360	16.891	1103.583	-1051.904	20.000
9.500	14898.120	1.218	1164.083	-438.857	20.000
9.520	14921.200	0.578	1078.750	388.448	18.000
9.540	14941.220	16.173	1004.750	1113.047	22.000
9.560	14961.260	43.304	911.333	1536.553	20.000
9.580	14977.460	75.899	769.333	1685.376	20.000
9.600	14992.400	109.619	689.083	1684.595	18.000
9.620	15005.700	142.198	734.833	1518.406	22.000
9.640	15021.800	169.392	760.000	1214.581	18.000
9.660	15036.300	189.671	828.083	725.965	22.000
9.680	15054.800	197.897	869.833	138.936	18.000
9.700	15070.960	196.009	887.417	-300.767	22.000
9.720	15090.320	186.751	919.250	-598.672	19.000
9.740	15107.480	172.686	893.417	-800.962	21.000
9.760	15126.340	154.999	935.917	-964.940	20.000
9.780	15144.700	134.221	923.667	-1112.006	20.000
9.800	15163.460	110.618	951.000	-1246.909	20.000
9.820	15182.760	84.517	976.417	-1363.664	20.000
9.840	15202.580	56.620	1014.167	-1405.683	20.000
9.860	15223.320	29.520	1040.250	-1262.780	19.000
9.880	15244.540	8.008	1146.500	-820.995	21.000
9.900	15268.780	-1.311	1182.167	-32.392	19.000
9.920	15291.100	7.009	1084.667	799.401	20.000
9.940	15312.080	29.301	995.500	1396.121	21.000
9.960	15330.620	61.054	835.917	1708.336	19.000
9.980	15346.020	95.975	773.667	1761.218	21.000
10.000	15362.000	130.397	784.250	1661.114	20.000
10.020	15377.440	161.353	786.917	1412.057	20.000
10.040	15393.760	185.409	845.417	916.806	20.000
10.060	15411.240	197.179	898.333	272.798	20.000
10.080	15429.500	196.976	916.500	-247.235	20.000
10.100	15447.760	188.422	911.083	-576.622	20.000
10.120	15465.960	174.684	914.833	-788.213	20.000
10.140	15484.260	157.231	891.917	-955.898	19.000
10.160	15501.940	136.625	934.167	-1098.997	21.000
10.180	15521.540	113.365	950.750	-1229.932	19.000
10.200	15540.000	87.514	971.167	-1359.501	21.000
10.220	15560.560	59.524	1028.500	-1414.529	20.000
10.240	15581.020	32.174	1056.500	-1277.805	20.000
10.260	15602.860	10.131	1093.167	-874.527	19.000
10.280	15624.840	-0.952	1165.167	-159.880	21.000
10.300	15648.760	4.402	1109.667	670.156	19.000
10.320	15668.580	24.712	933.417	1301.611	20.000
10.340	15686.460	54.606	842.000	1629.047	20.000
10.360	15702.420	88.294	763.500	1712.955	20.000
10.380	15717.400	122.092	756.417	1654.089	21.000
10.400	15732.860	153.485	773.083	1457.133	20.000
10.420	15748.440	179.149	807.583	1068.686	20.000
10.440	15765.200	195.041	846.583	469.754	19.000
10.460	15782.300	198.054	884.833	-104.332	20.000
10.480	15800.560	191.981	920.833	-478.990	20.000
10.500	15818.960	179.711	919.417	-726.485	20.000
10.520	15837.480	163.257	956.917	-937.426	21.000
10.540	15857.000	142.620	942.417	-1078.833	19.000
10.560	15875.220	120.234	935.167	-1201.768	20.000
10.580	15894.700	94.445	987.667	-1361.648	20.000
10.600	15914.640	66.283	1007.667	-1444.190	20.000
10.620	15935.320	37.809	1094.417	-1356.184	21.000
10.640	15958.340	13.753	1165.333	-1008.910	20.000
10.660	15981.640	-0.312	1185.417	-280.083	20.000
