%Time (s)	Wheel Position (deg)	Slide position (mm)	Wheel Speed (deg/s)	Slide Speed (mm/s)	Actual sample time (ms)	%2/9/20163:13 PM
0.000	9775.560	105.732	1098.000	-1466.240	20.000
0.020	9797.780	75.213	1093.917	-1579.157	19.000
0.040	9819.720	43.616	1174.167	-1549.497	21.000
0.060	9844.560	15.517	1208.417	-1182.254	19.000
0.080	9868.000	0.047	1232.500	-142.643	21.000
0.100	9894.000	10.397	1312.500	1008.715	20.000
0.120	9919.440	36.888	1195.167	1470.728	19.000
0.140	9941.080	68.157	935.667	1842.134	20.000
0.160	9957.800	109.150	865.667	2012.681	21.000
0.180	9976.320	146.382	891.250	1812.603	19.000
0.200	9993.600	179.649	916.917	1319.173	20.000
0.220	10013.580	197.117	1070.500	451.541	21.000
0.240	10035.820	198.428	1102.917	-261.155	20.000
0.260	10057.160	188.250	1035.083	-703.850	19.000
0.280	10077.540	171.390	1039.417	-973.786	20.000
0.300	10098.920	149.738	1071.083	-1190.580	20.000
0.320	10120.440	124.043	1111.583	-1368.933	21.000
0.340	10143.300	95.210	1140.750	-1523.089	20.000
0.360	10165.800	63.707	1104.000	-1601.988	19.000
0.380	10188.020	32.595	1192.000	-1476.127	21.000
0.400	10213.240	7.602	1221.833	-878.560	19.000
0.420	10236.740	0.640	1215.500	318.199	20.000
0.440	10262.320	18.920	1351.583	1223.037	21.000
0.460	10288.940	46.770	1103.333	1633.535	19.000
0.480	10306.460	83.112	871.333	1928.513	21.000
0.500	10325.060	122.123	894.750	1941.522	19.000
0.520	10342.160	158.902	852.250	1683.684	20.000
0.540	10359.800	187.126	935.500	1029.334	20.000
0.560	10379.840	199.053	1073.417	200.273	20.000
0.580	10401.980	196.290	1054.667	-409.977	20.000
0.600	10421.980	184.144	1043.750	-771.887	20.000
0.620	10443.800	166.254	1050.750	-1010.861	20.000
0.640	10463.900	144.025	1021.000	-1213.411	20.000
0.660	10485.160	117.939	1103.750	-1385.714	20.000
0.680	10507.820	88.841	1130.000	-1532.911	20.000
0.700	10530.260	57.354	1141.333	-1580.849	20.000
0.720	10553.500	27.241	1153.917	-1399.504	20.000
0.740	10576.680	4.543	1223.667	-693.443	20.000
0.760	10602.240	2.232	1247.500	535.254	19.000
0.780	10626.500	23.713	1291.333	1305.579	21.000
0.800	10652.660	52.140	1099.250	1696.108	20.000
0.820	10670.120	90.464	828.333	1977.817	19.000
0.840	10687.380	129.179	882.000	1917.846	21.000
0.860	10705.460	165.349	897.167	1604.915	19.000
0.880	10723.700	190.935	999.250	860.673	21.000
0.900	10745.360	199.334	1091.417	56.784	20.000
0.920	10766.760	194.494	1064.583	-512.163	20.000
0.940	10788.000	180.195	1063.000	-864.836	20.000
0.960	10809.320	160.744	1066.750	-1089.370	20.000
0.980	10830.720	136.891	1073.833	-1286.261	20.000
1.000	10852.500	109.509	1131.583	-1456.093	21.000
1.020	10875.720	79.022	1129.167	-1580.914	19.000
1.040	10897.740	47.254	1135.250	-1569.531	20.000
1.060	10921.640	18.265	1256.583	-1276.439	21.000
1.080	10947.400	0.140	1245.417	-275.009	19.000
1.100	10971.420	8.461	1243.083	958.240	20.000
1.120	10997.080	34.828	1269.417	1464.939	20.000
1.140	11020.740	65.784	993.083	1843.109	20.000
1.160	11037.300	107.137	815.083	2028.162	19.000
1.180	11054.840	144.587	930.083	1832.117	22.000
1.200	11074.260	178.493	960.667	1363.859	19.000
1.220	11093.200	196.930	970.833	484.258	19.000
1.240	11113.620	198.553	1105.750	-243.528	22.000
1.260	11136.720	188.843	1088.917	-685.182	19.000
1.280	11157.040	172.249	1053.917	-959.931	21.000
1.300	11179.220	150.940	1104.750	-1169.310	20.000
1.320	11200.680	125.713	1020.000	-1348.313	18.000
1.340	11220.700	97.193	1084.000	-1510.015	21.000
1.360	11244.080	65.862	1136.083	-1602.248	19.000
1.380	11266.260	34.531	1216.667	-1492.843	22.000
1.400	11292.500	8.961	1258.833	-941.588	19.000
1.420	11316.060	0.265	1180.333	242.552	19.000
1.440	11340.360	17.718	1264.750	1235.266	20.000
1.460	11365.860	46.380	1196.417	1617.599	22.000
1.480	11387.360	81.410	966.000	1922.269	20.000
1.500	11404.920	121.577	814.583	1965.524	18.000
1.520	11421.000	157.950	850.667	1689.864	20.000
1.540	11439.480	186.970	964.250	1057.693	20.000
1.560	11459.680	198.990	1102.667	195.850	22.000
1.580	11482.940	196.055	1121.667	-423.507	20.000
1.600	11504.040	183.629	1046.083	-777.806	20.000
1.620	11525.160	165.724	1061.333	-1022.894	20.000
1.640	11546.380	143.010	1039.167	-1227.916	19.000
1.660	11566.940	116.597	1061.000	-1463.703	20.000
1.680	11588.880	85.313	1079.250	-1548.066	19.000
1.700	11610.520	55.434	1185.417	-1530.309	22.000
1.720	11636.000	25.243	1232.833	-1396.837	19.000
1.740	11659.400	3.309	1188.417	-602.315	20.000
1.760	11684.040	3.559	1262.750	644.594	20.000
1.780	11709.620	26.523	1301.083	1377.128	20.000
1.800	11734.700	56.246	1070.083	1721.085	21.000
1.820	11752.420	94.289	838.667	1956.157	19.000
1.840	11769.620	132.629	878.500	1893.844	21.000
1.860	11787.700	168.112	902.500	1551.058	19.000
1.880	11806.100	192.309	1009.083	791.985	21.000
1.900	11827.660	199.474	1027.833	-7.805	18.000
1.920	11847.120	193.448	1032.583	-541.823	21.000
1.940	11869.180	179.102	1097.167	-868.998	20.000
1.960	11890.440	159.370	1026.583	-1099.712	19.000
1.980	11910.900	135.408	1107.583	-1293.416	22.000
2.000	11934.500	107.823	1129.333	-1466.760	19.000
2.020	11955.840	77.148	1093.000	-1588.784	20.000
2.040	11978.920	45.318	1210.833	-1567.449	21.000
2.060	12003.940	16.672	1255.417	-1223.102	20.000
2.080	12028.700	0.203	1213.250	-194.419	19.000
2.100	12052.780	9.772	1248.417	1004.422	20.000
2.120	12078.460	36.779	1283.417	1491.087	21.000
2.140	12102.400	68.219	956.750	1865.290	18.000
2.160	12117.640	109.915	822.333	2033.170	21.000
2.180	12136.600	147.194	937.500	1817.352	20.000
2.200	12154.700	180.616	915.083	1314.880	19.000
2.220	12173.880	197.663	1044.083	414.270	21.000
2.240	12196.260	198.100	1136.917	-292.181	21.000
2.260	12218.500	187.641	1062.500	-714.192	19.000
2.280	12238.800	170.563	1004.667	-982.567	19.000
2.300	12259.200	148.770	1043.083	-1196.499	20.000
2.320	12280.740	122.950	1121.750	-1371.599	21.000
2.340	12303.680	93.899	1107.333	-1583.255	19.000
2.360	12325.420	60.773	1183.500	-1600.948	22.000
2.380	12350.880	31.331	1236.167	-1418.107	19.000
2.400	12374.300	6.635	1163.000	-843.046	19.000
2.420	12398.040	1.140	1233.417	415.051	20.000
2.440	12423.580	21.574	1303.750	1330.816	20.000
2.460	12449.100	51.234	1175.833	1685.311	22.000
2.480	12469.880	87.998	901.917	1966.044	18.000
2.500	12486.240	128.055	828.417	1964.353	20.000
2.520	12504.240	164.288	979.250	1603.549	22.000
2.540	12525.160	190.108	1058.667	901.651	20.000
2.560	12546.220	199.568	1076.250	63.354	20.000
2.580	12568.000	193.901	1064.167	-543.644	19.000
2.600	12588.660	179.430	1023.000	-878.820	19.000
2.620	12609.280	159.479	1051.500	-1116.624	20.000
2.640	12630.940	135.111	1121.250	-1308.506	21.000
2.660	12653.880	107.340	1133.750	-1478.728	20.000
2.680	12676.360	76.352	1164.917	-1603.419	21.000
2.700	12700.540	44.303	1211.500	-1576.361	20.000
2.720	12724.640	15.642	1217.250	-1206.191	20.000
2.740	12749.360	-0.016	1253.917	-118.186	20.000
2.760	12774.780	11.287	1302.750	1035.708	20.000
2.780	12800.720	37.825	1228.667	1486.274	20.000
2.800	12822.860	69.796	939.583	1878.233	19.000
2.820	12839.120	111.351	812.417	2031.609	19.000
2.840	12856.480	148.724	885.917	1809.481	20.000
2.860	12874.700	181.662	958.000	1283.139	20.000
2.880	12894.880	198.007	1050.750	375.243	20.000
2.900	12916.400	197.663	1081.167	-325.484	20.000
2.920	12937.900	186.673	1074.167	-738.519	20.000
2.940	12959.380	169.111	1074.667	-1008.324	20.000
2.960	12980.920	146.835	1080.083	-1207.036	20.000
2.980	13002.640	120.952	1090.083	-1399.829	20.000
3.000	13024.760	91.089	1152.500	-1567.059	21.000
3.020	13048.480	59.102	1155.500	-1614.867	19.000
3.040	13071.040	28.131	1170.917	-1439.051	20.000
3.060	13095.560	4.855	1227.333	-709.769	20.000
3.080	13120.380	2.482	1347.917	541.823	22.000
3.100	13148.640	24.259	1327.583	1331.012	18.000
3.120	13172.180	53.326	1054.917	1727.199	21.000
3.140	13191.340	92.166	897.000	1998.957	20.000
3.160	13208.800	131.208	856.083	1934.302	20.000
3.180	13226.320	167.566	941.083	1588.979	21.000
3.200	13246.560	192.293	1039.667	805.970	19.000
3.220	13267.560	199.490	1074.167	-16.651	20.000
3.240	13289.200	193.167	1054.250	-556.718	19.000
3.260	13309.640	178.556	1011.500	-884.999	20.000
3.280	13330.180	158.434	1081.583	-1121.307	20.000
3.300	13352.640	134.018	1083.750	-1317.222	20.000
3.320	13373.620	105.981	1101.000	-1486.469	20.000
3.340	13397.060	75.072	1202.500	-1581.954	21.000
3.360	13421.300	43.616	1211.333	-1567.970	20.000
3.380	13445.480	14.768	1216.333	-1195.523	20.000
3.400	13470.260	-0.140	1297.750	-75.387	21.000
3.420	13496.820	11.942	1274.083	1070.832	18.000
3.440	13520.560	39.105	1139.417	1519.967	20.000
3.460	13542.100	71.731	947.583	1897.422	20.000
3.480	13559.040	113.381	848.000	2035.707	20.000
3.500	13577.240	150.769	988.583	1787.496	22.000
3.520	13598.160	182.833	1016.250	1236.567	19.000
3.540	13617.800	198.350	1032.500	335.306	20.000
3.560	13639.620	197.257	1096.417	-359.047	20.000
3.580	13661.120	185.690	1047.083	-762.455	19.000
3.600	13681.580	167.722	1013.417	-1026.602	20.000
3.620	13702.180	145.055	1089.083	-1235.005	20.000
3.640	13724.880	118.564	1101.167	-1412.448	19.000
3.660	13746.140	88.825	1080.417	-1561.140	21.000
3.680	13768.980	56.870	1262.917	-1609.403	22.000
3.700	13795.680	26.179	1234.167	-1418.172	18.000
3.720	13818.100	3.653	1156.833	-629.438	20.000
3.740	13842.900	3.450	1287.667	626.446	20.000
3.760	13869.100	26.101	1337.833	1351.631	20.000
3.780	13894.640	55.418	1035.250	1754.388	19.000
3.800	13910.940	95.007	827.000	2010.600	20.000
3.820	13929.160	133.644	885.750	1904.121	20.000
3.840	13946.780	169.361	991.833	1552.294	23.000
3.860	13968.780	193.261	1105.000	756.406	20.000
3.880	13989.860	199.396	980.917	-62.508	17.000
3.900	14008.600	192.387	984.333	-586.054	20.000
3.920	14029.920	177.369	1135.667	-878.300	22.000
3.940	14053.020	157.700	1066.917	-1124.494	19.000
3.960	14072.660	132.691	1019.583	-1331.077	19.000
3.980	14094.460	104.842	1108.083	-1474.696	20.000
4.000	14116.740	73.964	1130.083	-1607.972	20.000
4.020	14139.720	41.806	1169.750	-1550.798	20.000
4.040	14163.520	14.315	1206.250	-1140.495	20.000
4.060	14187.960	-0.156	1240.417	-64.069	20.000
4.080	14213.160	11.989	1297.167	1055.482	20.000
4.100	14239.140	38.574	1238.833	1494.924	20.000
4.120	14261.640	70.842	964.333	1871.469	20.000
4.140	14278.480	111.882	845.417	2018.925	20.000
4.160	14296.440	149.301	901.083	1797.968	20.000
4.180	14314.640	181.709	951.083	1263.365	20.000
4.200	14334.660	197.944	1037.333	380.122	20.000
4.220	14355.980	197.819	1101.917	-313.126	21.000
4.240	14378.200	186.954	1059.333	-754.194	19.000
4.260	14398.500	168.940	1054.250	-984.648	21.000
4.280	14420.580	147.912	1093.167	-1180.758	20.000
4.300	14442.000	121.795	1076.250	-1377.323	20.000
4.320	14463.840	93.181	1105.667	-1517.235	20.000
4.340	14486.280	61.647	1139.167	-1596.459	20.000
4.360	14509.460	30.862	1183.500	-1458.630	20.000
4.380	14533.560	6.400	1212.250	-817.678	20.000
4.400	14558.040	1.280	1262.583	420.059	20.000
4.420	14583.980	21.231	1332.250	1248.535	20.000
4.440	14609.800	48.690	1098.000	1643.617	20.000
4.460	14627.900	86.031	872.417	1963.572	20.000
4.480	14645.880	125.214	876.750	1947.766	20.000
4.500	14663.240	162.164	896.167	1697.279	20.000
4.520	14682.100	190.295	985.000	948.028	20.000
4.540	14702.580	199.334	1061.167	76.298	20.000
4.560	14724.200	195.041	1074.417	-469.819	20.000
4.580	14745.360	181.818	1054.833	-821.646	20.000
4.600	14766.480	162.929	1055.750	-1056.588	20.000
4.620	14787.660	139.638	1066.750	-1308.571	20.000
4.640	14809.220	111.180	1088.417	-1458.890	20.000
4.660	14831.260	81.878	1119.417	-1513.592	20.000
4.680	14854.060	50.985	1161.000	-1561.205	20.000
4.700	14877.720	21.340	1207.083	-1332.378	20.000
4.720	14902.260	1.561	1235.917	-422.011	20.000
4.740	14927.160	6.260	1267.583	831.793	20.000
4.760	14952.960	31.627	1345.500	1443.669	21.000
4.780	14979.100	62.240	1038.500	1813.319	19.000
4.800	14994.860	102.922	808.167	2040.000	20.000
4.820	15013.120	141.418	911.000	1859.956	20.000
4.840	15031.160	175.449	936.333	1421.684	20.000
4.860	15050.860	196.071	1027.917	581.240	20.000
4.880	15072.060	198.943	1076.750	-199.102	20.000
4.900	15093.620	189.874	1070.250	-661.961	20.000
4.920	15114.820	173.654	1059.750	-943.865	20.000
4.940	15136.080	152.626	1062.750	-1160.529	20.000
4.960	15157.400	127.493	1075.833	-1344.866	20.000
4.980	15179.200	99.113	1103.417	-1489.916	20.000
5.000	15201.580	68.313	1136.167	-1590.020	20.000
5.020	15224.700	36.763	1179.500	-1519.967	20.000
5.040	15248.720	10.303	1213.417	-1014.699	20.000
5.060	15273.240	-0.172	1249.667	169.767	20.000
5.080	15298.680	16.360	1305.333	1202.418	20.000
5.100	15324.460	44.475	1179.000	1590.475	20.000
5.120	15345.200	78.897	925.500	1882.006	20.000
5.140	15362.440	118.408	862.917	1984.777	20.000
5.160	15380.400	156.139	909.000	1755.169	20.000
5.180	15398.960	186.065	967.583	1100.363	20.000
5.200	15419.200	198.912	1049.667	231.429	20.000
5.220	15440.620	196.508	1068.917	-408.611	20.000
5.240	15461.760	184.144	1051.750	-786.457	20.000
5.260	15482.900	165.989	1088.250	-1024.651	21.000
5.280	15505.020	143.510	1063.750	-1219.915	19.000
5.300	15525.520	117.346	1050.417	-1400.870	20.000
5.320	15547.420	87.779	1110.500	-1543.903	20.000
5.340	15570.000	56.355	1176.583	-1581.889	21.000
5.360	15594.340	26.117	1223.000	-1403.211	20.000
5.380	15618.500	3.700	1178.083	-631.845	19.000
5.400	15641.900	3.309	1229.167	610.771	20.000
5.420	15667.740	25.539	1325.333	1326.654	20.000
5.440	15693.260	54.247	1091.250	1708.401	21.000
5.460	15711.300	92.806	848.333	1983.346	19.000
5.480	15728.480	131.427	854.833	1898.788	20.000
5.500	15745.900	166.973	905.083	1570.376	20.000
5.520	15764.900	191.872	988.500	825.353	20.000
5.540	15785.440	199.474	1077.417	-3.122	21.000
5.560	15807.560	193.355	1089.083	-531.221	20.000
5.580	15828.600	179.586	1022.583	-841.615	19.000
5.600	15848.800	160.260	1029.083	-1080.914	20.000
5.620	15869.940	136.703	1060.333	-1268.243	20.000
5.640	15891.300	109.712	1110.333	-1436.839	20.000
5.660	15914.120	79.584	1110.250	-1562.831	20.000
5.680	15935.760	48.144	1118.083	-1558.148	20.000
5.700	15959.160	19.232	1192.833	-1276.309	20.000
5.720	15983.280	0.859	1218.333	-318.654	20.000
5.740	16008.000	7.618	1278.750	854.038	20.000
5.760	16034.080	31.705	1305.750	1359.891	20.000
5.780	16058.660	61.038	1016.417	1788.862	20.000
5.800	16075.180	101.845	824.750	2020.551	20.000
5.820	16092.860	139.404	856.000	1837.125	20.000
5.840	16109.740	173.701	918.333	1446.921	20.000
5.860	16129.700	194.978	996.833	632.691	20.000
5.880	16149.500	199.178	1058.417	-131.260	20.000
5.900	16171.700	191.372	1057.833	-599.063	20.000
5.920	16191.720	176.355	1044.917	-893.390	20.000
5.940	16213.580	156.170	1053.583	-1116.819	20.000
5.960	16233.760	131.973	1030.167	-1300.180	20.000
5.980	16255.160	104.358	1085.917	-1462.727	20.000
6.000	16277.120	73.901	1111.333	-1568.750	20.000
6.020	16299.840	42.649	1192.917	-1534.862	20.000
6.040	16324.480	14.799	1198.333	-1163.846	20.000
6.060	16347.740	-0.094	1192.333	-96.852	20.000
6.080	16372.720	11.287	1321.917	1036.489	20.000
6.100	16399.600	37.794	1269.917	1468.191	20.000
6.120	16422.100	69.140	930.000	1851.305	20.000
6.140	16438.000	110.368	840.333	2022.893	20.000
6.160	16456.721	147.568	929.667	1777.024	20.000
6.180	16474.881	179.727	921.333	1298.944	20.000
6.200	16494.020	197.523	1014.083	449.850	20.000
6.220	16515.279	198.257	1072.417	-284.961	20.000
6.240	16536.539	187.844	1055.333	-717.379	20.000
6.260	16557.660	170.688	1087.167	-978.729	20.000
6.280	16579.779	149.145	1060.417	-1183.100	20.000
6.300	16600.279	123.559	1078.750	-1365.615	20.000
6.320	16623.000	94.757	1108.250	-1516.714	19.000
6.340	16644.520	63.333	1101.000	-1629.632	20.000
6.360	16667.721	31.346	1246.000	-1473.330	22.000
6.380	16693.801	7.384	1267.750	-837.322	20.000
6.400	16718.199	0.765	1251.167	341.875	20.000
6.420	16744.100	19.638	1334.833	1234.160	20.000
6.440	16769.840	47.332	1050.333	1625.665	18.000
6.460	16786.561	83.720	869.417	1948.417	22.000
6.480	16805.801	123.262	925.417	1940.351	20.000
6.500	16823.119	159.464	831.750	1663.651	18.000
6.520	16840.221	187.594	990.417	1018.276	22.000
6.540	16862.301	199.100	1038.917	179.068	18.000
6.560	16881.539	195.962	1054.083	-428.775	22.000
6.580	16904.340	183.426	1049.917	-792.246	18.000
6.600	16923.561	165.115	1052.500	-1033.627	22.000
6.620	16946.480	142.464	1068.917	-1223.623	18.000
6.640	16966.061	116.331	1016.250	-1397.813	20.000
6.660	16987.801	86.827	1105.667	-1540.261	20.000
6.680	17010.221	55.496	1172.750	-1575.580	21.000
6.700	17034.400	25.446	1172.250	-1388.836	19.000
6.720	17057.400	3.419	1244.250	-607.063	22.000
6.740	17083.900	3.528	1253.750	625.406	18.000
6.760	17107.600	25.851	1316.167	1336.150	22.000
6.780	17135.100	54.809	1096.167	1705.279	19.000
6.800	17151.119	92.993	801.583	1965.784	20.000
6.820	17168.980	131.396	879.500	1888.901	20.000
6.840	17186.260	166.754	891.417	1561.986	20.000
6.860	17205.141	191.560	1016.333	828.541	21.000
6.880	17226.461	199.427	1045.167	23.611	19.000
6.900	17246.660	193.932	1023.000	-517.952	20.000
6.920	17267.580	180.070	1047.000	-839.988	20.000
6.940	17288.580	161.009	1080.417	-1068.361	21.000
6.960	17310.539	137.640	1060.083	-1257.251	19.000
6.980	17331.039	110.899	1047.917	-1425.717	20.000
7.000	17352.840	80.926	1112.833	-1558.473	20.000
7.020	17375.480	49.470	1153.583	-1565.563	20.000
7.040	17398.980	20.247	1197.250	-1300.636	20.000
7.060	17423.301	1.202	1226.083	-372.512	20.000
7.080	17448.061	6.931	1269.000	861.974	20.000
7.100	17473.859	32.345	1311.333	1428.319	20.000
7.120	17498.900	62.521	1025.500	1799.074	20.000
7.140	17515.301	103.125	829.583	2032.780	20.000
7.160	17533.461	141.387	895.417	1853.777	20.000
7.180	17551.240	175.402	950.917	1415.570	21.000
7.200	17571.520	195.837	1013.333	581.696	19.000
7.220	17591.561	198.990	1033.167	-176.467	20.000
7.240	17612.820	190.482	1054.500	-630.479	20.000
7.260	17633.680	174.918	1066.083	-911.928	21.000
7.280	17655.400	154.578	1072.417	-1112.006	20.000
7.300	17676.340	130.615	1020.167	-1294.717	19.000
7.320	17696.721	102.937	1078.583	-1465.589	21.000
7.340	17719.400	72.528	1105.333	-1558.994	19.000
7.360	17741.020	41.618	1148.750	-1514.178	21.000
7.380	17765.461	14.221	1219.583	-1136.072	20.000
7.400	17789.500	-0.109	1222.167	-75.192	20.000
7.420	17814.539	11.365	1293.833	1005.853	20.000
7.440	17840.340	36.810	1199.917	1448.287	20.000
7.460	17861.660	68.172	935.333	1773.316	20.000
7.480	17878.480	106.762	811.917	1986.338	19.000
7.500	17895.180	145.383	878.833	1832.702	21.000
7.520	17913.641	177.775	918.750	1318.393	19.000
7.540	17932.020	196.430	971.583	512.878	20.000
7.560	17952.699	198.725	1079.000	-203.395	21.000
7.580	17974.480	189.889	1042.250	-637.829	19.000
7.600	17994.359	174.263	1004.667	-914.009	20.000
7.620	18015.160	153.813	1072.250	-1126.186	21.000
7.640	18037.020	129.476	1087.583	-1302.587	20.000
7.660	18058.420	101.876	1050.583	-1463.898	19.000
7.680	18079.420	71.388	1089.583	-1563.156	20.000
7.700	18102.221	40.447	1167.167	-1513.853	20.000
7.720	18125.920	13.207	1199.333	-1113.242	20.000
7.740	18150.301	-0.250	1267.917	-12.424	21.000
7.760	18176.221	12.988	1255.167	1147.520	19.000
7.780	18200.320	41.681	1246.583	1529.593	21.000
7.800	18224.840	73.246	984.333	1857.224	19.000
7.820	18240.080	114.708	788.500	2023.413	20.000
7.840	18258.061	151.471	931.167	1724.402	21.000
7.860	18276.840	181.865	925.250	1159.423	19.000
7.880	18295.439	196.649	1012.667	382.659	21.000
7.900	18317.061	197.866	1039.667	-256.537	19.000
7.920	18336.779	187.641	1020.167	-691.686	21.000
7.940	18358.039	171.375	1047.083	-933.653	20.000
7.960	18378.439	150.722	1023.333	-1124.429	20.000
7.980	18399.039	126.588	1009.667	-1291.269	19.000
8.000	18419.180	99.206	1067.333	-1448.092	21.000
8.020	18441.641	69.156	1095.250	-1537.334	19.000
8.040	18463.080	38.808	1145.083	-1478.793	21.000
8.060	18487.381	12.364	1180.083	-1067.190	19.000
8.080	18510.279	-0.219	1216.417	18.473	21.000
8.100	18536.020	13.066	1265.833	1096.005	19.000
8.120	18560.260	39.995	1211.083	1465.264	21.000
8.140	18583.420	71.029	946.917	1832.442	19.000
8.160	18598.820	111.820	820.417	1979.378	21.000
8.180	18617.240	147.881	880.083	1739.948	19.000
8.200	18633.920	179.758	877.417	1273.837	20.000
8.220	18653.000	196.945	1026.917	458.241	21.000
8.240	18674.320	198.616	1030.417	-248.471	19.000
8.260	18693.980	188.765	992.583	-642.382	20.000
8.280	18714.461	173.951	1058.083	-878.235	21.000
8.300	18735.900	153.797	1026.833	-1117.209	19.000
8.320	18755.740	129.647	1046.000	-1287.497	21.000
8.340	18777.779	102.469	1069.667	-1442.954	19.000
8.360	18798.461	72.325	1065.583	-1550.603	20.000
8.380	18820.939	41.525	1183.583	-1508.779	20.000
8.400	18845.279	14.237	1179.417	-1134.576	20.000
8.420	18868.279	-0.125	1216.250	-77.468	20.000
8.440	18894.119	11.427	1312.250	1032.846	20.000
8.460	18919.760	37.638	1226.167	1444.970	20.000
8.480	18942.180	68.453	948.500	1827.433	20.000
8.500	18958.480	109.291	829.917	1999.542	20.000
8.520	18976.240	146.070	860.500	1778.585	20.000
8.540	18993.061	178.681	891.667	1314.685	20.000
8.560	19012.301	196.711	1006.583	492.584	20.000
8.580	19032.961	198.897	1041.833	-217.185	20.000
8.600	19053.859	189.577	1071.833	-657.798	20.000
8.620	19075.500	173.732	1036.667	-921.750	20.000
8.640	19095.381	153.266	1011.417	-1101.859	20.000
8.660	19116.320	129.632	1059.750	-1305.319	20.000
8.680	19137.680	101.220	1078.917	-1493.168	19.000
8.700	19159.561	70.639	1106.750	-1563.612	20.000
8.720	19182.359	39.683	1232.750	-1511.966	22.000
8.740	19208.141	12.598	1199.500	-1092.883	18.000
8.760	19230.461	-0.234	1200.917	21.660	21.000
8.780	19256.480	13.597	1281.083	1171.262	19.000
8.800	19280.859	42.477	1207.000	1502.730	20.000
8.820	19303.881	73.183	964.000	1869.127	20.000
8.840	19319.980	115.801	826.833	2029.333	20.000
8.860	19338.080	151.596	902.250	1710.548	20.000
8.880	19356.020	182.739	925.917	1211.004	20.000
8.900	19375.660	198.163	1073.917	350.917	22.000
8.920	19398.400	197.695	1114.250	-319.240	20.000
8.940	19419.381	187.017	976.583	-711.395	18.000
8.960	19438.359	170.188	1037.500	-963.964	22.000
8.980	19460.961	148.849	1112.750	-1166.708	20.000
9.000	19482.039	123.700	1003.917	-1350.395	18.000
9.020	19501.760	95.116	1035.167	-1496.486	20.000
9.040	19523.820	64.426	1131.000	-1563.156	20.000
9.060	19546.760	33.813	1162.417	-1471.703	20.000
9.080	19570.600	8.430	1273.667	-923.376	22.000
9.100	19597.020	0.359	1241.417	277.871	18.000
9.120	19620.221	18.405	1223.417	1247.949	20.000
9.140	19645.779	46.926	1198.667	1595.224	21.000
9.160	19667.061	81.457	932.083	1918.626	20.000
9.180	19684.061	121.920	882.250	1964.288	21.000
9.200	19702.760	157.887	882.917	1677.765	18.000
9.220	19719.641	186.939	909.917	1058.669	20.000
9.240	19739.801	198.943	1077.583	203.525	21.000
9.260	19762.000	196.290	1092.667	-415.051	20.000
9.280	19783.020	183.848	1019.833	-783.790	19.000
9.300	19803.160	165.786	1020.000	-1030.700	20.000
9.320	19824.320	143.026	1124.833	-1221.086	22.000
9.340	19847.600	117.081	1104.750	-1400.414	19.000
9.360	19868.580	87.264	1107.583	-1553.530	21.000
9.380	19892.100	55.793	1151.000	-1582.540	19.000
9.400	19914.500	25.570	1159.083	-1400.219	20.000
9.420	19938.721	3.341	1223.250	-608.104	20.000
9.440	19963.359	3.700	1270.167	653.570	20.000
9.460	19989.400	26.772	1334.667	1366.331	20.000
9.480	20015.100	56.167	1068.333	1735.980	20.000
9.500	20032.320	95.163	843.000	2006.827	20.000
9.520	20050.320	134.190	913.250	1900.739	21.000
9.540	20068.840	169.314	939.583	1533.171	20.000
9.560	20088.080	193.199	1005.417	755.430	20.000
9.580	20108.900	199.271	1040.083	-57.044	19.000
9.600	20129.500	192.543	1040.833	-569.922	20.000
9.620	20150.580	177.760	1053.417	-882.918	20.000
9.640	20171.721	157.887	1083.917	-1102.379	21.000
9.660	20193.840	133.925	1098.917	-1290.814	20.000
9.680	20215.439	106.434	1059.667	-1459.735	19.000
9.700	20236.600	75.931	1095.083	-1580.133	20.000
9.720	20259.480	44.272	1172.500	-1558.994	20.000
9.740	20283.340	15.861	1209.000	-1205.865	20.000
9.760	20307.961	0.031	1278.000	-124.821	21.000
9.780	20334.279	11.411	1328.000	1060.425	20.000
9.800	20360.279	38.637	1248.417	1490.567	19.000
9.820	20383.180	70.202	959.750	1887.145	20.000
9.840	20399.539	112.616	840.583	2071.351	20.000
9.860	20418.020	150.332	947.667	1797.448	21.000
9.880	20437.260	182.552	984.250	1246.323	20.000
9.900	20457.500	198.303	1052.417	341.875	20.000
9.920	20479.160	197.273	1089.417	-349.551	20.000
9.940	20500.641	186.049	1035.583	-745.153	19.000
9.960	20520.920	168.409	1057.917	-1006.568	21.000
9.980	20543.039	146.226	1094.167	-1209.053	20.000
10.000	20564.461	120.265	1077.167	-1384.543	20.000
10.020	20586.359	91.073	1111.333	-1538.635	20.000
10.040	20608.961	59.477	1147.917	-1582.605	20.000
10.060	20632.320	29.192	1197.750	-1444.385	20.000
10.080	20656.641	5.042	1193.333	-748.340	19.000
10.100	20680.340	2.248	1250.333	519.383	20.000
10.120	20706.721	23.525	1357.333	1311.498	20.000
10.140	20732.881	52.405	1111.417	1729.801	21.000
10.160	20751.199	91.541	886.333	2028.422	20.000
10.180	20769.439	131.224	872.583	1941.522	19.000
10.200	20786.480	167.254	891.000	1581.239	20.000
10.220	20805.699	192.137	1033.500	811.304	21.000
10.240	20827.439	199.349	1100.917	-9.431	20.000
10.260	20849.080	193.277	1038.333	-553.206	19.000
10.280	20869.301	178.634	1058.750	-868.088	21.000
10.300	20891.381	159.183	1063.417	-1099.127	19.000
10.320	20911.740	134.939	1036.500	-1298.749	20.000
10.340	20933.381	107.511	1125.833	-1458.760	21.000
10.360	20956.539	76.961	1162.250	-1576.361	20.000
10.380	20979.580	45.459	1133.750	-1556.652	19.000
10.400	21002.400	16.844	1221.000	-1231.428	21.000
10.420	21028.160	0.172	1244.583	-194.939	19.000
10.440	21052.141	10.209	1267.000	1077.857	21.000
10.460	21078.801	39.167	1331.833	1533.951	20.000
10.480	21103.439	70.123	980.500	1825.872	19.000
10.500	21118.920	111.336	825.333	2051.318	21.000
10.520	21137.779	149.348	914.833	1777.934	19.000
10.540	21155.439	180.648	953.250	1258.877	21.000
10.560	21176.039	197.913	1024.083	410.888	19.000
10.580	21196.221	197.726	1058.417	-310.329	21.000
10.600	21218.240	187.360	1081.333	-698.906	20.000
10.620	21239.020	170.704	1003.667	-958.565	19.000
10.640	21258.920	149.473	1042.333	-1155.976	21.000
10.660	21280.779	124.683	1090.667	-1325.093	20.000
10.680	21302.160	96.631	1046.583	-1481.135	19.000
10.700	21323.180	65.987	1123.000	-1562.246	21.000
10.720	21346.939	35.374	1158.417	-1478.338	19.000
10.740	21369.500	9.569	1188.083	-970.143	20.000
10.760	21394.699	0.094	1279.583	196.565	20.000
10.780	21420.119	16.579	1267.833	1186.742	20.000
10.800	21444.801	44.272	1161.500	1560.555	20.000
10.820	21466.020	78.179	941.583	1892.283	20.000
