%Time (s)	Wheel Position (deg)	Slide position (mm)	Wheel Speed (deg/s)	Slide Speed (mm/s)	Actual sample time (ms)	%2/9/20163:11 PM
0.000	2800.360	191.606	523.500	374.983	20.000
0.020	2811.160	196.945	557.583	155.847	20.000
0.040	2822.660	198.054	591.833	-17.627	20.000
0.060	2834.780	196.149	614.667	-217.250	20.000
0.080	2847.280	189.468	650.417	-404.579	21.000
0.100	2860.600	180.398	643.667	-509.691	19.000
0.120	2873.120	169.142	658.333	-614.023	21.000
0.140	2887.020	155.873	694.750	-713.606	20.000
0.160	2900.640	140.637	669.750	-807.531	19.000
0.180	2914.020	123.622	690.750	-891.699	20.000
0.200	2928.380	104.935	728.583	-986.404	20.000
0.220	2943.160	84.267	766.000	-1069.857	21.000
0.240	2958.900	62.537	778.083	-1089.565	19.000
0.260	2974.340	41.197	799.667	-1033.822	20.000
0.280	2991.080	21.871	858.917	-877.584	20.000
0.300	3008.680	7.056	921.000	-568.492	21.000
0.320	3027.480	0.031	902.750	-109.731	19.000
0.340	3044.500	2.919	839.333	388.903	20.000
0.360	3060.980	15.111	773.250	811.174	20.000
0.380	3075.240	34.359	667.250	1069.206	20.000
0.400	3087.820	56.870	591.417	1159.619	20.000
0.420	3099.080	80.380	550.583	1223.037	21.000
0.440	3109.760	104.967	482.417	1137.568	18.000
0.460	3118.620	125.604	457.917	1007.869	21.000
0.480	3128.360	145.648	488.833	974.241	21.000
0.500	3137.980	163.944	471.500	810.588	20.000
0.520	3147.320	177.869	477.167	621.698	20.000
0.540	3157.140	188.828	492.417	445.947	19.000
0.560	3167.120	195.509	522.250	224.990	20.000
0.580	3178.200	198.038	590.833	53.272	21.000
0.600	3190.460	197.554	597.667	-141.928	19.000
0.620	3202.060	192.402	601.083	-335.956	20.000
0.640	3214.560	184.488	614.833	-459.997	19.000
0.660	3226.740	174.138	644.250	-568.752	21.000
0.680	3240.340	161.837	675.667	-661.310	20.000
0.700	3253.680	147.693	689.000	-755.105	20.000
0.720	3267.920	131.645	712.917	-847.078	20.000
0.740	3282.020	113.834	696.417	-935.084	20.000
0.760	3295.960	94.258	715.000	-1025.561	20.000
0.780	3310.860	73.011	779.083	-1088.785	20.000
0.800	3327.040	51.203	825.750	-1072.524	21.000
0.820	3343.680	30.706	828.167	-970.143	19.000
0.840	3360.340	13.222	866.667	-745.348	20.000
0.860	3378.500	1.998	943.500	-336.997	21.000
0.880	3397.600	0.421	936.667	183.426	19.000
0.900	3415.320	9.179	811.417	677.897	20.000
0.920	3430.100	26.648	705.167	1026.602	20.000
0.940	3443.760	49.111	644.250	1191.360	19.000
0.960	3455.880	73.495	576.167	1235.851	20.000
0.980	3466.940	98.036	531.833	1207.101	20.000
1.000	3477.260	121.436	503.083	1128.332	20.000
1.020	3487.160	142.932	488.750	1016.780	20.000
1.040	3496.900	161.868	485.750	869.649	20.000
1.060	3506.760	177.463	514.167	682.840	21.000
1.080	3517.480	188.968	543.917	462.078	20.000
1.100	3528.400	195.852	546.417	221.998	19.000
1.120	3539.480	198.085	581.750	33.303	20.000
1.140	3551.620	197.117	597.417	-177.767	20.000
1.160	3563.620	191.091	670.500	-374.723	22.000
1.180	3578.140	182.568	684.417	-489.072	19.000
1.200	3590.720	171.625	643.667	-595.485	20.000
1.220	3604.160	158.761	659.167	-702.614	19.000
1.240	3617.300	143.556	715.167	-806.295	22.000
1.260	3632.580	126.650	736.000	-881.032	19.000
1.280	3646.440	108.245	686.167	-974.371	19.000
1.300	3660.640	87.717	769.333	-1066.409	22.000
1.320	3677.100	65.940	820.500	-1102.249	20.000
1.340	3693.220	44.147	821.583	-1060.100	20.000
1.360	3710.160	24.228	875.667	-916.286	20.000
1.380	3727.940	8.445	854.583	-625.666	18.000
1.400	3744.700	0.234	925.417	-162.027	22.000
1.420	3764.440	2.357	899.833	366.137	18.000
1.440	3780.060	14.409	750.500	815.987	20.000
1.460	3794.860	33.969	695.250	1098.802	20.000
1.480	3807.940	57.291	645.417	1210.679	22.000
1.500	3820.620	81.707	583.250	1224.859	20.000
1.520	3831.240	105.747	512.667	1148.366	20.000
1.540	3841.280	127.649	464.750	1093.663	18.000
1.560	3850.180	149.223	486.000	997.722	22.000
1.580	3860.600	167.035	473.583	805.970	18.000
1.600	3869.160	181.381	461.167	615.779	20.000
1.620	3879.460	191.481	534.833	391.375	20.000
1.640	3890.380	197.008	563.667	160.986	19.000
1.660	3902.000	198.116	597.000	-30.376	20.000
1.680	3914.200	195.821	619.500	-224.079	20.000
1.700	3926.740	189.280	635.833	-401.066	20.000
1.720	3939.620	180.101	646.000	-519.448	20.000
1.740	3952.760	168.612	697.083	-626.446	22.000
1.760	3967.320	155.140	716.500	-716.599	20.000
1.780	3981.040	139.935	651.750	-812.344	18.000
1.800	3993.900	122.669	698.417	-902.952	21.000
1.820	4008.980	103.811	730.000	-1002.470	19.000
1.840	4023.220	82.862	794.417	-1045.270	23.000
1.860	4040.400	62.068	785.250	-1094.379	17.000
1.880	4054.600	39.589	756.667	-1072.328	20.000
1.900	4071.560	20.278	929.917	-863.405	22.000
1.920	4090.900	5.901	896.500	-535.449	18.000
1.940	4107.620	-0.219	936.833	-48.393	23.000
1.960	4127.920	4.121	899.083	462.468	18.000
1.980	4142.880	17.656	716.667	868.738	20.000
2.000	4157.200	37.903	675.667	1124.559	20.000
2.020	4169.860	61.538	610.583	1198.906	21.000
2.040	4181.600	85.282	538.583	1192.791	19.000
2.060	4191.540	108.947	488.417	1147.976	20.000
2.080	4201.380	130.912	483.333	1057.693	20.000
2.100	4210.880	151.065	471.083	943.865	20.000
2.120	4220.320	168.378	475.417	781.708	20.000
2.140	4230.000	182.146	496.417	594.184	20.000
2.160	4240.240	191.950	527.083	372.512	20.000
2.180	4251.100	197.039	559.583	148.172	20.000
2.200	4262.620	198.116	587.833	-26.408	20.000
2.220	4274.740	195.915	651.750	-224.209	22.000
2.240	4288.280	189.296	630.917	-398.139	18.000
2.260	4299.960	180.289	608.083	-520.163	20.000
2.280	4312.960	168.659	661.500	-617.730	20.000
2.300	4326.240	155.655	669.583	-702.744	20.000
2.320	4339.760	140.481	684.917	-804.994	20.000
2.340	4353.660	123.528	704.250	-889.292	20.000
2.360	4367.940	104.842	725.083	-993.104	20.000
2.380	4382.660	83.970	739.667	-1072.524	20.000
2.400	4397.740	62.365	801.250	-1082.215	21.000
2.420	4414.540	41.119	824.167	-1032.391	19.000
2.440	4430.680	21.761	838.000	-880.056	20.000
2.460	4448.380	6.916	923.917	-568.817	21.000
2.480	4467.340	-0.047	962.583	-99.909	21.000
2.500	4486.080	3.169	847.667	407.115	18.000
2.520	4501.260	15.767	750.333	839.598	21.000
2.540	4516.300	35.717	700.833	1103.290	20.000
2.560	4529.020	58.837	581.833	1195.133	19.000
2.580	4539.960	82.940	545.500	1206.906	21.000
2.600	4550.900	106.715	511.167	1160.464	19.000
2.620	4560.420	129.085	472.417	1073.955	20.000
2.640	4570.020	149.489	475.667	965.655	20.000
2.660	4579.540	167.378	491.000	800.766	21.000
2.680	4589.700	181.303	514.167	603.876	20.000
2.700	4600.020	191.419	515.000	390.919	19.000
2.720	4610.460	196.883	545.833	164.563	20.000
2.740	4622.020	198.194	613.750	-21.790	21.000
2.760	4634.700	196.009	616.667	-217.120	19.000
2.780	4646.640	189.655	613.917	-390.659	20.000
2.800	4659.420	180.679	645.000	-511.317	20.000
2.820	4672.440	169.314	676.500	-619.226	21.000
2.840	4686.300	155.998	671.583	-712.826	19.000
2.860	4699.320	140.825	669.417	-804.604	20.000
2.880	4713.280	123.840	709.833	-891.114	20.000
2.900	4727.620	105.154	726.500	-986.079	20.000
2.920	4742.340	84.501	742.917	-1069.597	20.000
2.940	4757.440	62.771	778.667	-1088.134	20.000
2.960	4773.540	41.478	823.583	-1032.846	20.000
2.980	4790.340	22.120	859.083	-881.682	20.000
3.000	4807.880	7.181	894.667	-577.142	20.000
3.020	4825.980	0.000	909.000	-111.031	20.000
3.040	4843.940	3.028	875.667	401.717	20.000
3.060	4860.660	15.548	782.250	828.931	20.000
3.080	4875.160	35.155	679.750	1091.452	20.000
3.100	4888.000	58.072	604.417	1160.919	20.000
3.120	4899.520	81.270	562.417	1204.434	21.000
3.140	4910.480	105.841	508.000	1188.238	19.000
3.160	4920.020	128.242	486.167	1072.914	21.000
3.180	4930.080	148.677	493.667	961.102	20.000
3.200	4939.640	166.457	464.167	812.474	19.000
3.220	4948.960	180.897	500.667	617.860	21.000
3.240	4959.660	191.013	529.250	399.700	19.000
3.260	4970.080	196.836	544.167	171.328	20.000
3.280	4981.580	198.038	591.750	-23.416	20.000
3.300	4993.720	195.977	635.583	-208.989	21.000
3.320	5006.760	189.764	631.667	-386.431	19.000
3.340	5018.980	180.804	625.500	-512.943	20.000
3.360	5032.060	169.392	680.333	-619.942	21.000
3.380	5046.000	156.107	694.000	-710.354	20.000
3.400	5059.640	140.981	671.083	-803.173	19.000
3.420	5073.060	123.996	693.333	-892.805	20.000
3.440	5087.480	105.263	734.167	-985.494	20.000
3.460	5102.320	84.641	748.917	-1075.386	20.000
3.480	5117.520	62.662	781.167	-1097.566	20.000
3.500	5133.640	41.275	826.333	-1039.741	20.000
3.520	5150.560	21.746	865.000	-885.845	20.000
3.540	5168.320	6.853	930.667	-571.028	21.000
3.560	5187.360	-0.109	916.417	-90.803	19.000
3.580	5204.680	3.481	853.333	431.637	20.000
3.600	5221.500	16.563	808.833	855.144	21.000
3.620	5236.640	36.638	679.667	1108.819	19.000
3.640	5248.920	59.914	601.333	1203.394	20.000
3.660	5260.920	84.173	565.333	1212.955	20.000
3.680	5271.420	108.026	492.667	1163.521	20.000
3.700	5280.960	130.428	487.750	1072.784	20.000
3.720	5291.000	150.706	491.333	948.678	21.000
3.740	5300.500	168.143	464.250	789.579	19.000
3.760	5309.820	182.068	486.750	596.070	20.000
3.780	5320.100	191.825	528.250	376.414	20.000
3.800	5330.980	197.101	574.417	151.034	20.000
3.820	5343.000	198.069	610.167	-33.043	20.000
3.840	5355.160	195.774	599.667	-225.770	20.000
3.860	5367.100	189.140	613.000	-407.701	20.000
3.880	5379.860	179.851	666.583	-518.407	20.000
3.900	5393.480	168.534	659.250	-612.722	19.000
3.920	5406.220	155.343	651.833	-711.005	21.000
3.940	5419.760	140.122	685.000	-804.279	19.000
3.960	5433.660	123.200	726.000	-892.219	21.000
3.980	5448.600	104.420	726.500	-986.534	20.000
4.000	5462.700	83.861	714.500	-1064.848	19.000
4.020	5477.720	62.178	820.250	-1089.110	22.000
4.040	5495.140	40.822	845.250	-1034.667	19.000
4.060	5511.260	21.496	811.500	-876.869	19.000
4.080	5528.160	6.728	906.833	-564.589	21.000
4.100	5547.120	-0.125	910.667	-90.412	19.000
4.120	5564.380	3.356	896.583	422.076	22.000
4.140	5582.460	16.220	783.750	846.623	18.000
4.160	5595.700	36.186	668.250	1102.965	22.000
4.180	5609.580	59.321	641.583	1195.783	20.000
4.200	5620.960	83.455	512.583	1212.500	18.000
4.220	5630.560	107.386	479.667	1163.911	20.000
4.240	5640.520	129.710	518.167	1070.312	22.000
4.260	5650.940	150.019	475.667	954.793	18.000
4.280	5659.640	167.644	451.167	798.165	20.000
4.300	5669.360	181.709	496.667	605.242	20.000
4.320	5679.600	191.669	559.083	381.618	22.000
4.340	5691.420	196.961	554.083	154.286	18.000
4.360	5701.940	198.069	589.500	-26.733	22.000
4.380	5715.100	195.884	654.917	-217.965	20.000
4.400	5727.560	189.468	594.000	-393.911	18.000
4.420	5739.200	180.460	606.167	-508.910	20.000
4.440	5752.180	169.221	698.583	-611.551	22.000
4.460	5766.580	156.045	668.667	-709.313	18.000
4.480	5778.940	140.918	645.333	-793.156	20.000
4.500	5792.800	124.277	702.333	-886.300	20.000
4.520	5807.060	105.435	759.667	-989.071	22.000
4.540	5822.980	84.891	780.667	-1064.068	20.000
4.560	5838.060	63.208	751.917	-1089.240	19.000
4.580	5853.440	41.837	806.333	-1036.554	20.000
4.600	5870.280	22.417	845.083	-886.691	19.000
4.620	5887.220	7.337	880.833	-584.948	20.000
4.640	5905.480	0.016	915.583	-116.105	20.000
4.660	5923.640	3.013	925.750	404.318	22.000
4.680	5941.900	15.689	828.417	843.046	20.000
4.700	5956.400	35.686	658.667	1111.030	19.000
4.720	5968.740	59.071	591.917	1208.922	20.000
4.740	5980.280	83.424	550.833	1219.590	20.000
4.760	5990.880	107.449	526.917	1171.977	21.000
4.780	6001.320	130.006	490.917	1080.979	19.000
4.800	6010.600	150.456	466.750	957.524	20.000
4.820	6020.220	168.050	483.667	793.286	20.000
4.840	6030.060	181.990	517.750	600.884	21.000
4.860	6040.920	191.887	550.833	373.292	20.000
4.880	6051.940	196.945	549.750	150.058	19.000
4.900	6063.060	198.100	581.583	-30.246	20.000
4.920	6075.240	195.681	620.333	-230.779	20.000
4.940	6087.740	189.031	631.750	-405.880	20.000
4.960	6100.500	179.773	644.417	-515.610	20.000
4.980	6113.520	168.253	657.917	-680.499	20.000
5.000	6126.820	153.204	671.833	-710.549	20.000
5.020	6140.400	139.794	686.333	-750.552	20.000
5.040	6154.300	122.638	703.083	-906.139	20.000
5.060	6168.640	103.858	745.333	-988.941	21.000
5.080	6184.000	83.190	764.667	-1067.515	20.000
5.100	6199.120	61.553	758.667	-1081.370	19.000
5.120	6214.620	40.401	804.917	-1026.472	20.000
5.140	6231.520	21.075	892.000	-899.114	21.000
5.160	6250.020	5.714	928.833	-554.572	20.000
5.180	6268.240	-0.156	887.417	-51.646	19.000
5.200	6285.460	3.653	847.833	440.613	20.000
5.220	6302.060	16.984	800.250	862.169	21.000
5.240	6317.100	37.091	677.417	1110.575	19.000
5.260	6329.300	60.429	584.667	1204.695	20.000
5.280	6340.800	84.673	550.333	1211.785	20.000
5.300	6351.340	108.510	509.000	1163.326	20.000
5.320	6361.340	130.912	504.417	1070.897	21.000
5.340	6371.460	151.143	481.917	951.735	19.000
5.360	6380.700	168.721	471.417	791.790	20.000
5.380	6390.560	182.568	507.583	596.005	20.000
5.400	6401.000	192.278	536.500	344.412	20.000
5.420	6412.040	196.555	569.667	137.114	20.000
5.440	6423.780	197.960	602.583	-30.961	20.000
5.460	6436.080	195.119	624.250	-250.553	20.000
5.480	6448.700	188.219	637.583	-416.807	20.000
5.500	6461.580	178.759	651.417	-528.294	20.000
5.520	6474.760	167.113	663.667	-646.220	20.000
5.540	6488.220	153.063	696.417	-735.266	21.000
5.560	6502.540	137.749	716.000	-817.418	20.000
5.580	6516.680	120.312	693.917	-912.578	19.000
5.600	6530.600	101.283	737.250	-1001.560	21.000
5.620	6546.160	80.349	773.250	-1082.866	20.000
5.640	6561.440	58.415	787.333	-1090.736	20.000
5.660	6577.820	37.263	841.250	-1019.642	20.000
5.680	6594.920	18.374	852.167	-839.923	19.000
5.700	6612.100	4.730	910.583	-488.616	21.000
5.720	6631.160	-0.265	942.917	14.960	20.000
5.740	6649.200	5.417	863.083	532.392	20.000
5.760	6665.420	20.278	742.667	923.896	19.000
5.780	6679.040	41.306	648.167	1148.171	20.000
5.800	6691.640	65.112	611.917	1186.937	21.000
5.820	6703.400	88.529	542.083	1210.874	19.000
5.840	6713.440	113.194	492.417	1185.441	20.000
5.860	6723.340	135.345	486.333	1050.734	20.000
5.880	6732.980	155.140	492.333	919.863	21.000
5.900	6743.000	171.921	485.583	753.219	19.000
5.920	6752.560	185.034	510.083	549.628	21.000
5.940	6763.440	193.729	538.917	313.516	19.000
5.960	6774.080	197.695	554.583	103.031	20.000
5.980	6785.820	197.960	618.083	-89.697	21.000
6.000	6798.500	194.151	616.667	-283.400	19.000
6.020	6810.460	186.908	613.500	-426.824	20.000
6.040	6823.200	177.291	645.000	-537.010	20.000
6.060	6836.180	165.521	656.250	-634.772	20.000
6.080	6849.460	151.939	668.833	-727.071	20.000
6.100	6863.040	136.438	706.917	-820.800	20.000
6.120	6877.560	119.126	707.000	-911.343	20.000
6.140	6891.320	100.002	706.667	-1002.275	20.000
6.160	6906.020	79.178	741.750	-1076.621	20.000
6.180	6921.120	57.401	799.417	-1074.800	20.000
6.200	6937.940	36.701	849.750	-998.633	20.000
6.220	6954.820	18.140	839.000	-824.508	20.000
6.240	6971.680	4.761	869.583	-479.770	20.000
6.260	6989.680	-0.234	925.833	0.325	20.000
6.280	7008.120	4.855	874.167	494.796	20.000
6.300	7024.140	18.811	730.083	858.266	20.000
6.320	7037.560	38.371	640.667	1099.712	20.000
6.340	7049.980	61.912	587.500	1203.719	20.000
6.360	7061.080	85.734	528.250	1179.262	20.000
6.380	7071.300	108.823	507.417	1130.413	20.000
6.400	7081.340	130.631	470.917	1025.236	20.000
6.420	7090.280	149.785	460.167	923.896	20.000
6.440	7099.900	167.378	479.083	791.270	20.000
6.460	7109.340	181.069	466.583	598.542	20.000
6.480	7118.840	190.998	511.333	339.599	20.000
6.500	7129.820	195.088	560.333	169.377	20.000
6.520	7141.020	198.022	559.250	52.426	20.000
6.540	7152.300	196.617	580.500	-192.077	19.000
6.560	7164.460	190.654	652.250	-369.129	22.000
6.580	7178.020	182.240	649.250	-478.339	19.000
6.600	7190.240	171.593	606.000	-584.167	19.000
6.620	7202.720	158.933	661.667	-680.889	21.000
6.640	7216.620	144.399	695.250	-771.431	20.000
6.660	7230.260	128.102	671.750	-856.900	19.000
6.680	7243.700	110.087	689.333	-952.126	20.000
6.700	7258.140	90.090	768.917	-1039.546	22.000
6.720	7274.220	68.812	802.667	-1078.833	20.000
6.740	7289.880	47.394	758.167	-1049.238	18.000
6.760	7304.980	27.444	797.750	-932.547	20.000
6.780	7322.260	10.959	935.917	-683.426	22.000
6.800	7341.800	1.140	957.417	-262.521	20.000
6.820	7359.820	0.983	844.167	244.113	18.000
6.840	7375.680	10.647	766.083	708.793	20.000
6.860	7390.700	28.427	743.750	1025.236	22.000
6.880	7404.980	50.579	618.750	1167.294	18.000
6.900	7415.720	74.385	551.167	1201.312	22.000
6.920	7427.340	98.160	544.833	1166.253	20.000
6.940	7437.300	120.765	481.583	1093.273	20.000
6.960	7446.860	141.714	472.917	998.438	20.000
6.980	7456.300	160.432	472.167	860.217	20.000
7.000	7465.840	175.871	486.083	682.580	20.000
7.020	7475.820	187.563	516.083	479.185	20.000
7.040	7486.360	194.947	513.250	258.228	18.000
7.060	7496.600	198.038	562.500	70.313	21.000
7.080	7508.900	197.695	620.667	-137.375	20.000
7.100	7521.140	192.668	617.000	-327.566	20.000
7.120	7533.720	184.956	650.917	-450.435	21.000
7.140	7547.080	174.747	666.500	-565.955	20.000
7.160	7560.200	162.430	641.583	-662.091	19.000
7.180	7573.020	148.287	678.417	-757.707	21.000
7.200	7587.260	132.176	692.333	-843.111	19.000
7.220	7600.740	114.567	711.583	-928.840	21.000
7.240	7615.800	95.023	751.917	-1020.032	20.000
7.260	7630.560	73.979	728.167	-1080.394	19.000
7.280	7645.360	52.280	797.417	-1065.759	21.000
7.300	7662.460	31.924	866.333	-966.696	20.000
7.320	7679.620	14.362	852.833	-758.682	19.000
7.340	7696.720	2.638	877.167	-374.918	20.000
7.360	7714.760	0.078	924.667	127.163	21.000
7.380	7733.060	7.634	852.750	614.023	20.000
7.400	7748.420	23.806	696.333	970.663	19.000
7.420	7761.340	45.099	635.250	1077.727	21.000
7.440	7773.880	66.845	572.833	1224.859	19.000
7.460	7784.280	93.290	506.167	1235.851	20.000
7.480	7794.460	115.363	507.167	1073.759	21.000
7.500	7804.500	136.641	487.667	1024.521	20.000
7.520	7813.920	155.951	452.833	892.219	19.000
7.540	7822.920	172.109	480.250	730.843	21.000
7.560	7833.140	184.972	500.583	536.099	19.000
7.580	7843.000	193.402	529.500	314.296	21.000
7.600	7854.420	197.632	583.833	112.983	20.000
7.620	7866.080	197.960	578.333	-85.079	19.000
7.640	7877.660	194.323	597.333	-270.977	20.000
7.660	7890.120	187.345	649.917	-419.474	21.000
7.680	7903.380	177.744	643.333	-536.685	19.000
7.700	7915.860	166.005	640.500	-634.447	20.000
7.720	7929.180	152.408	673.000	-729.607	20.000
7.740	7942.800	136.922	706.750	-801.547	21.000
7.760	7957.380	120.187	731.000	-907.375	20.000
7.780	7971.840	100.611	712.417	-1020.618	19.000
7.800	7986.060	79.693	727.083	-1076.361	20.000
7.820	8001.260	57.916	811.500	-1081.044	21.000
7.840	8018.240	36.951	829.333	-1013.788	19.000
7.860	8034.520	18.124	873.500	-833.809	21.000
7.880	8053.100	4.668	907.083	-479.900	19.000
7.900	8070.500	-0.234	884.250	12.554	20.000
7.920	8088.380	5.261	861.417	520.163	20.000
7.940	8104.540	19.857	757.083	909.196	20.000
7.960	8118.680	40.557	663.500	1123.779	20.000
7.980	8131.200	63.926	590.167	1202.353	20.000
8.000	8142.420	88.107	537.417	1204.695	20.000
8.020	8152.820	111.695	502.083	1142.707	20.000
8.040	8162.660	133.581	496.167	1049.303	21.000
8.060	8172.620	153.469	474.667	928.775	19.000
8.080	8181.740	170.469	467.167	766.878	20.000
8.100	8191.540	183.895	502.250	565.760	20.000
8.120	8201.900	192.933	546.667	335.501	21.000
8.140	8213.360	197.398	582.583	120.593	20.000
8.160	8225.100	197.976	600.833	-48.979	20.000
8.180	8237.320	195.290	603.417	-259.789	19.000
8.200	8249.380	187.829	636.833	-425.718	21.000
8.220	8262.780	178.571	670.833	-537.595	20.000
8.240	8275.940	166.395	646.000	-646.285	19.000
8.260	8288.800	152.845	661.250	-730.973	20.000
8.280	8302.500	137.125	693.083	-823.792	20.000
8.300	8316.560	119.844	732.083	-929.165	21.000
8.320	8331.680	100.096	754.917	-1009.885	20.000
8.340	8346.540	79.615	725.750	-1067.580	19.000
8.360	8361.160	57.666	793.917	-1090.346	21.000
8.380	8378.220	36.623	839.167	-1014.374	19.000
8.400	8394.580	17.843	849.417	-830.167	20.000
8.420	8412.500	4.480	938.000	-473.136	21.000
8.440	8431.540	-0.234	915.750	24.912	19.000
8.460	8448.780	5.557	838.583	536.294	20.000
8.480	8465.040	20.481	764.333	925.002	20.000
8.500	8479.240	41.493	665.333	1141.991	20.000
8.520	8491.780	65.253	590.750	1217.899	20.000
8.540	8503.020	89.653	538.333	1215.167	20.000
8.560	8513.500	113.459	519.000	1152.659	20.000
8.580	8523.800	135.501	498.250	1054.116	20.000
8.600	8533.460	155.405	480.417	925.197	21.000
8.620	8543.120	172.233	476.833	752.763	19.000
8.640	8552.760	185.268	516.833	540.912	20.000
8.660	8563.760	193.745	545.500	307.207	20.000
8.680	8574.540	197.679	564.167	99.714	20.000
8.700	8586.440	197.788	607.417	-101.990	20.000
8.720	8598.800	193.683	643.667	-295.303	20.000
8.740	8612.060	186.252	660.583	-440.613	20.000
8.760	8625.020	176.261	632.667	-554.637	20.000
8.780	8637.660	164.163	670.917	-655.326	20.000
8.800	8651.760	150.082	681.917	-752.243	20.000
8.820	8664.960	134.096	696.917	-845.777	20.000
8.840	8679.760	116.269	743.833	-936.710	20.000
8.860	8694.400	96.646	716.917	-1028.879	20.000
8.880	8708.760	75.291	759.250	-1098.932	20.000
8.900	8724.900	53.201	823.667	-1085.337	20.000
8.920	8741.540	32.455	853.667	-989.201	20.000
8.940	8758.960	14.440	869.750	-773.968	20.000
8.960	8776.360	2.607	889.833	-373.943	20.000
8.980	8794.720	0.172	967.667	138.090	21.000
9.000	8814.060	8.055	846.000	639.585	19.000
9.020	8828.320	24.884	684.917	996.291	20.000
9.040	8842.120	46.801	669.167	1174.058	20.000
9.060	8854.820	71.029	578.250	1229.607	20.000
9.080	8865.460	95.444	529.667	1205.150	20.000
9.100	8876.260	118.923	529.500	1138.089	21.000
9.120	8886.520	140.715	499.750	1035.513	20.000
9.140	8896.220	160.057	459.333	888.252	18.000
9.160	8905.200	175.996	471.833	703.264	20.000
9.180	8915.460	187.985	560.333	487.055	22.000
9.200	8927.200	195.353	556.583	245.284	18.000
9.220	8937.740	198.022	555.500	52.881	20.000
9.240	8949.860	197.429	656.250	-155.132	22.000
9.260	8963.420	191.903	632.500	-350.201	18.000
9.280	8975.140	183.629	605.500	-519.253	20.000
9.300	8988.180	171.671	695.917	-587.550	22.000
9.320	9002.620	160.198	711.083	-646.415	20.000
9.340	9016.240	145.461	643.417	-783.269	18.000
9.360	9028.960	129.085	710.667	-866.917	22.000
9.380	9044.480	110.758	730.583	-963.574	18.000
9.400	9057.980	90.636	703.250	-1046.831	20.000
9.420	9073.060	69.124	767.500	-1097.176	20.000
9.440	9088.820	47.254	853.500	-1069.271	22.000
9.460	9107.000	27.022	906.750	-942.564	20.000
9.480	9124.660	10.444	873.750	-681.084	19.000
9.500	9142.160	0.859	896.417	-238.584	20.000
9.520	9160.400	1.405	903.417	286.067	20.000
9.540	9177.780	11.973	813.667	757.382	20.000
9.560	9192.800	30.706	703.583	1065.369	20.000
9.580	9206.080	53.498	625.500	1197.800	20.000
9.600	9217.940	77.913	564.417	1236.176	20.000
9.620	9228.780	102.157	522.333	1130.934	20.000
9.640	9238.940	123.294	496.000	1071.028	20.000
9.660	9248.720	145.118	484.917	1053.270	20.000
9.680	9258.420	164.553	483.667	865.291	20.000
9.700	9268.240	179.446	516.667	642.773	21.000
9.720	9279.020	190.248	529.167	426.499	19.000
9.740	9289.520	196.414	566.667	185.768	21.000
9.760	9301.660	197.944	597.333	1.106	19.000
9.780	9313.360	196.430	616.917	-197.866	21.000
9.800	9326.380	190.108	650.917	-390.854	20.000
9.820	9339.220	181.210	649.000	-506.374	20.000
9.840	9352.320	169.985	645.083	-606.217	19.000
9.860	9365.120	156.982	658.250	-705.866	20.000
9.880	9378.760	141.777	692.917	-802.197	20.000
9.900	9392.760	124.948	709.250	-887.601	20.000
9.920	9407.140	106.247	726.917	-982.176	20.000
9.940	9421.940	85.765	768.417	-1063.612	21.000
9.960	9437.740	64.035	778.083	-1093.923	19.000
9.980	9453.140	42.524	801.250	-1047.026	20.000
10.000	9470.000	22.854	865.167	-897.358	20.000
10.020	9487.720	7.602	929.083	-595.615	21.000
10.040	9506.740	0.031	916.250	-125.992	19.000
10.060	9524.080	2.888	858.500	396.968	20.000
10.080	9540.980	15.377	793.333	830.947	20.000
10.100	9555.600	35.093	684.250	1094.964	20.000
10.120	9568.500	58.244	607.333	1219.330	20.000
10.140	9580.020	83.034	548.833	1207.361	20.000
10.160	9590.580	106.262	509.917	1169.635	20.000
10.180	9600.520	129.476	486.417	1077.922	20.000
10.200	9610.120	149.067	474.833	931.897	20.000
10.220	9619.600	166.770	474.083	806.230	20.000
10.240	9629.260	180.960	506.583	613.047	21.000
10.260	9639.860	191.122	537.250	396.318	20.000
10.280	9650.620	196.758	538.250	166.840	19.000
10.300	9661.540	198.038	569.583	-12.554	20.000
10.320	9673.520	196.243	628.000	-202.875	21.000
