%Time (s)	Wheel Position (deg)	Slide position (mm)	Wheel Speed (deg/s)	Slide Speed (mm/s)	Actual sample time (ms)	%2/9/20163:10 PM
0.000	9271.980	184.425	305.167	347.079	20.000
0.020	9278.440	190.545	337.167	259.919	20.000
0.040	9285.420	194.807	351.167	173.409	20.000
0.060	9292.700	197.429	411.833	75.062	21.000
0.080	9301.780	197.882	448.583	-2.342	19.000
0.100	9310.480	197.133	448.917	-120.333	20.000
0.120	9320.000	192.996	511.417	-254.780	22.000
0.140	9330.720	187.220	531.500	-331.793	20.000
0.160	9340.960	179.727	490.083	-417.067	18.000
0.180	9350.600	170.610	503.833	-488.551	20.000
0.200	9361.420	160.213	583.750	-556.133	22.000
0.220	9373.480	148.365	557.500	-624.430	18.000
0.240	9383.900	135.236	579.250	-691.816	22.000
0.260	9396.640	120.655	594.333	-766.488	18.000
0.280	9407.680	104.576	605.500	-843.371	22.000
0.300	9421.080	87.046	670.083	-901.456	20.000
0.320	9434.100	68.765	651.333	-918.758	19.000
0.340	9447.180	50.516	641.833	-905.944	18.000
0.360	9460.160	32.845	702.750	-849.615	21.000
0.380	9475.520	17.109	819.750	-703.655	22.000
0.400	9492.160	5.417	773.833	-443.215	18.000
0.420	9506.440	-0.031	734.583	-86.119	20.000
0.440	9521.800	2.092	758.333	288.669	20.000
0.460	9536.340	11.177	691.917	609.730	21.000
0.480	9549.360	25.805	615.500	822.687	21.000
0.500	9560.860	43.335	518.250	915.375	19.000
0.520	9570.240	61.912	448.167	930.141	20.000
0.540	9579.000	80.349	416.000	927.734	20.000
0.560	9586.920	98.676	387.667	864.510	21.000
0.580	9594.460	114.786	348.083	778.911	19.000
0.600	9600.880	129.928	314.333	717.509	20.000
0.620	9607.140	143.432	298.833	642.773	19.000
0.640	9612.920	155.639	297.000	569.727	21.000
0.660	9619.060	166.208	304.167	492.974	20.000
0.680	9624.960	175.402	278.250	426.108	18.000
0.700	9630.460	183.223	307.833	353.258	22.000
0.720	9637.340	189.499	347.083	275.139	20.000
0.740	9644.220	194.198	358.417	194.289	20.000
0.760	9651.740	197.164	382.167	90.868	19.000
0.780	9659.640	197.913	432.333	9.106	21.000
0.800	9668.980	197.414	472.667	-94.120	20.000
0.820	9678.380	194.010	478.167	-227.006	20.000
0.840	9688.220	188.531	516.750	-318.980	21.000
0.860	9698.800	181.334	498.833	-401.326	18.000
0.880	9708.320	172.561	512.833	-469.949	21.000
0.900	9719.460	162.570	558.250	-533.172	20.000
0.920	9730.420	151.206	549.750	-603.030	20.000
0.940	9741.620	138.452	586.917	-671.457	21.000
0.960	9753.660	124.340	566.167	-740.665	18.000
0.980	9764.520	108.791	601.583	-818.003	22.000
1.000	9777.740	91.682	638.667	-888.512	19.000
1.020	9789.880	73.511	633.750	-914.335	20.000
1.040	9803.260	55.340	665.500	-906.985	19.000
1.060	9816.580	37.497	706.083	-864.901	21.000
1.080	9831.620	21.246	779.000	-745.023	21.000
1.100	9847.300	8.336	761.500	-525.757	19.000
1.120	9862.060	0.859	749.583	-200.793	20.000
1.140	9877.340	0.578	759.250	168.076	20.000
1.160	9892.040	7.368	693.583	502.146	20.000
1.180	9904.920	20.075	603.167	742.031	20.000
1.200	9916.240	36.326	530.917	865.551	20.000
1.220	9926.180	54.154	455.167	907.180	19.000
1.240	9934.700	72.262	430.583	897.813	22.000
1.260	9943.360	89.840	392.750	854.363	19.000
1.280	9950.340	106.340	336.917	799.140	20.000
1.300	9957.040	121.733	323.583	733.250	20.000
1.320	9963.280	135.611	302.583	662.806	20.000
1.340	9969.220	148.021	298.000	534.993	21.000
1.360	9975.160	157.575	283.083	526.017	19.000
1.380	9980.560	169.049	265.917	513.594	19.000
1.400	9986.060	177.588	303.167	389.033	22.000
1.420	9992.600	184.863	316.333	330.037	19.000
1.440	9998.720	190.717	330.917	251.073	21.000
1.460	10005.920	194.869	362.333	167.816	19.000
1.480	10013.200	197.382	388.083	74.802	20.000
1.500	10021.480	197.913	420.417	-2.081	19.000
1.520	10030.060	197.117	461.833	-114.479	21.000
1.540	10039.900	193.245	497.250	-245.999	20.000
1.560	10049.720	187.516	485.000	-328.932	19.000
1.580	10059.420	180.148	499.083	-406.660	20.000
1.600	10069.820	171.281	543.250	-480.941	21.000
1.620	10080.920	160.962	536.000	-544.490	19.000
1.640	10091.340	149.457	548.417	-620.918	21.000
1.660	10102.940	136.235	581.167	-673.214	20.000
1.680	10114.360	122.482	560.500	-735.461	19.000
1.700	10125.600	106.731	594.833	-817.678	21.000
1.720	10138.100	89.934	612.917	-870.169	19.000
1.740	10150.100	72.090	622.000	-899.439	20.000
1.760	10163.260	54.201	695.083	-890.658	21.000
1.780	10177.600	36.732	700.417	-846.038	19.000
1.800	10191.280	20.825	709.833	-730.908	20.000
1.820	10206.160	8.133	757.583	-515.805	20.000
1.840	10221.380	0.827	764.000	-196.565	20.000
1.860	10236.580	0.546	754.833	166.450	20.000
1.880	10251.280	7.306	694.917	501.430	20.000
1.900	10264.200	20.013	605.250	740.795	20.000
1.920	10275.560	36.217	532.083	864.055	20.000
1.940	10285.560	54.044	470.583	908.741	20.000
1.960	10294.460	72.184	420.917	895.927	20.000
1.980	10302.460	89.653	380.833	849.485	20.000
2.000	10309.740	106.059	346.333	789.319	20.000
2.020	10316.400	121.171	328.917	721.737	21.000
2.040	10322.860	134.892	301.333	647.911	19.000
2.060	10328.480	147.100	276.000	575.842	20.000
2.080	10334.060	157.996	283.667	518.342	20.000
2.100	10339.760	167.800	272.667	451.671	20.000
2.120	10345.020	176.089	270.667	390.919	20.000
2.140	10350.720	183.442	293.583	332.054	20.000
2.160	10356.780	189.312	315.083	261.220	20.000
2.180	10363.380	193.886	345.500	194.224	20.000
2.200	10370.680	196.945	393.250	99.323	21.000
2.220	10379.000	197.897	417.583	17.952	19.000
2.240	10387.360	197.570	436.667	-78.964	20.000
2.260	10396.600	194.572	488.917	-211.851	21.000
2.280	10406.680	189.296	491.083	-302.979	19.000
2.300	10416.220	182.552	491.083	-379.732	20.000
2.320	10426.460	174.122	518.750	-457.395	20.000
2.340	10436.980	164.319	548.917	-522.765	21.000
2.360	10448.260	153.204	543.333	-591.322	19.000
2.380	10458.880	140.668	579.083	-659.684	21.000
2.400	10471.260	126.837	579.917	-722.648	19.000
2.420	10482.000	111.711	559.083	-796.994	20.000
2.440	10494.040	94.976	629.833	-867.633	21.000
2.460	10506.940	77.055	638.583	-944.385	19.000
2.480	10519.620	57.822	658.083	-903.602	20.000
2.500	10533.380	41.134	701.833	-835.175	20.000
2.520	10547.620	24.478	725.417	-779.562	20.000
2.540	10562.500	10.740	779.500	-585.533	20.000
2.560	10578.480	1.764	770.667	-280.083	20.000
2.580	10593.180	-0.047	741.583	94.640	20.000
2.600	10608.100	5.401	715.250	442.630	20.000
2.620	10621.480	17.125	627.417	706.777	20.000
2.640	10633.220	32.907	550.083	842.590	20.000
2.660	10643.560	50.376	485.833	921.555	20.000
2.680	10652.720	69.187	431.167	901.651	19.000
2.700	10660.880	86.187	387.750	843.631	20.000
2.720	10668.300	103.000	355.417	810.588	20.000
2.740	10675.140	118.408	328.167	734.746	20.000
2.760	10681.500	132.410	315.750	668.010	21.000
2.780	10687.720	145.133	290.500	602.705	19.000
2.800	10693.160	156.482	271.167	530.375	20.000
2.820	10698.700	166.333	277.667	452.777	20.000
2.840	10704.260	174.716	278.083	399.375	20.000
2.860	10709.880	182.334	288.250	351.567	20.000
2.880	10715.860	188.640	309.833	276.050	20.000
2.900	10722.320	193.355	338.333	201.053	20.000
2.920	10729.420	196.633	370.583	117.861	20.000
2.940	10737.160	198.022	405.833	26.538	20.000
2.960	10745.640	197.695	439.417	-59.646	20.000
2.980	10754.680	195.478	462.750	-178.743	20.000
3.000	10764.120	190.592	478.500	-289.124	20.000
3.020	10773.940	184.098	526.667	-365.292	22.000
3.040	10784.880	176.042	510.417	-434.174	18.000
3.060	10794.360	166.754	495.250	-499.739	20.000
3.080	10804.980	156.045	541.500	-567.906	20.000
3.100	10815.880	144.056	552.333	-631.780	20.000
3.120	10827.080	130.756	563.750	-699.167	20.000
3.140	10838.600	116.066	617.583	-771.041	22.000
3.160	10851.440	99.924	592.167	-844.867	18.000
3.180	10862.540	82.456	620.750	-887.601	22.000
3.200	10876.480	64.644	699.750	-894.951	20.000
3.220	10889.940	46.848	641.250	-878.755	18.000
3.240	10902.700	29.848	716.833	-810.653	22.000
3.260	10918.400	14.986	738.917	-655.196	18.000
3.280	10932.120	4.309	734.583	-393.131	21.000
3.300	10947.960	-0.219	781.667	-44.946	20.000
3.320	10962.880	2.560	728.917	309.353	20.000
3.340	10976.880	11.786	639.583	604.656	19.000
3.360	10988.540	26.101	568.750	797.904	21.000
3.380	10999.740	42.992	520.417	875.828	20.000
3.400	11009.260	60.710	446.583	893.715	20.000
3.420	11017.740	78.460	401.000	870.625	20.000
3.440	11025.360	95.350	362.750	819.955	20.000
3.460	11032.300	111.164	332.000	756.276	20.000
3.480	11038.680	125.557	306.917	685.377	20.000
3.500	11044.620	138.608	287.667	621.308	20.000
3.520	11050.260	150.410	282.917	556.653	21.000
3.540	11055.900	160.869	268.000	491.088	19.000
3.560	11061.020	170.048	257.583	423.051	20.000
3.580	11066.380	177.853	283.333	367.633	21.000
3.600	11072.280	184.753	288.750	312.150	19.000
3.620	11077.980	190.279	302.417	245.674	20.000
3.640	11084.520	194.541	343.917	175.621	20.000
3.660	11091.720	197.195	378.000	82.672	20.000
3.680	11099.660	197.929	415.833	13.399	20.000
3.700	11108.380	197.538	463.167	-93.665	21.000
3.720	11118.000	194.073	473.167	-223.104	19.000
3.740	11127.280	188.828	478.167	-308.507	20.000
3.760	11137.300	181.787	522.333	-390.594	21.000
3.780	11148.020	173.295	533.250	-455.509	20.000
3.800	11158.560	163.554	534.417	-525.757	20.000
3.820	11169.380	152.283	531.917	-592.688	19.000
3.840	11179.920	139.872	544.500	-653.700	20.000
3.860	11191.240	126.088	570.333	-724.209	20.000
3.880	11202.760	110.883	600.250	-799.856	21.000
3.900	11215.220	94.180	627.167	-862.364	20.000
3.920	11227.700	76.571	620.833	-895.211	19.000
3.940	11240.240	58.556	653.667	-902.692	20.000
3.960	11253.920	40.744	698.750	-869.844	20.000
3.980	11268.100	24.212	721.333	-769.545	20.000
4.000	11282.880	10.584	775.417	-571.744	21.000
4.020	11298.800	1.967	767.417	-274.034	19.000
4.040	11313.420	0.000	734.500	85.404	20.000
4.060	11328.240	5.308	729.500	433.263	21.000
4.080	11342.120	16.813	626.750	697.735	19.000
4.100	11353.320	32.486	530.167	843.436	20.000
4.120	11363.640	49.970	498.083	900.480	21.000
4.140	11373.160	68.141	442.417	902.952	20.000
4.160	11381.300	85.937	375.667	893.976	19.000
4.180	11388.420	103.515	356.750	813.775	21.000
4.200	11395.560	118.408	329.250	721.867	19.000
4.220	11401.620	132.598	306.750	676.271	21.000
4.240	11407.880	145.352	294.083	604.331	19.000
4.260	11413.360	156.763	272.167	533.302	20.000
4.280	11418.900	166.692	276.250	463.509	20.000
4.300	11424.460	175.324	287.667	396.383	21.000
4.320	11430.380	182.599	289.583	340.444	19.000
4.340	11436.160	188.890	313.167	275.074	21.000
4.360	11443.000	193.511	354.167	193.248	20.000
4.380	11450.260	196.602	379.750	110.056	21.000
4.400	11458.180	197.913	402.417	29.986	19.000
4.420	11466.460	197.695	447.167	-68.037	21.000
4.440	11476.020	195.056	484.000	-192.923	20.000
4.460	11485.660	190.076	489.250	-299.011	20.000
4.480	11495.620	183.270	506.500	-373.812	20.000
4.500	11505.840	175.168	505.083	-444.451	19.000
4.520	11515.900	165.505	517.417	-514.244	20.000
4.540	11526.680	154.624	562.083	-578.313	21.000
4.560	11538.160	142.339	558.250	-649.993	19.000
4.580	11549.020	128.633	555.750	-718.420	20.000
4.600	11560.640	113.568	608.833	-794.847	20.000
4.620	11573.140	96.880	607.333	-868.088	20.000
4.640	11585.000	79.084	617.667	-899.569	20.000
4.660	11598.140	61.100	690.417	-901.326	20.000
4.680	11612.400	43.226	714.750	-880.121	20.000
4.700	11626.640	26.335	727.000	-790.750	21.000
4.720	11641.460	12.192	734.167	-609.925	19.000
4.740	11656.140	2.607	772.417	-322.167	21.000
4.760	11672.200	-0.219	789.917	45.531	19.000
4.780	11687.180	4.371	700.000	401.977	20.000
4.800	11700.200	15.377	621.750	679.718	20.000
4.820	11712.140	30.894	560.583	855.599	20.000
4.840	11722.660	48.830	505.833	903.537	21.000
4.860	11732.320	66.658	437.667	905.033	19.000
4.880	11740.240	84.641	380.583	831.728	20.000
4.900	11747.740	100.174	360.250	819.434	20.000
4.920	11754.680	117.346	342.583	799.270	20.000
4.940	11761.380	131.630	309.333	671.262	19.000
4.960	11767.140	144.462	294.000	609.275	21.000
4.980	11773.180	155.998	284.583	540.262	19.000
5.000	11778.520	166.067	270.083	469.428	21.000
5.020	11784.120	174.809	282.917	404.969	19.000
5.040	11789.840	182.287	291.417	344.867	20.000
5.060	11795.840	188.562	310.917	277.286	20.000
5.080	11802.340	193.324	340.833	201.899	20.000
5.100	11809.500	196.555	374.250	110.186	20.000
5.120	11817.320	197.773	407.667	30.961	20.000
5.140	11825.860	197.710	456.083	-62.638	21.000
5.160	11835.380	195.134	465.417	-182.841	19.000
5.180	11844.520	190.482	488.917	-284.766	21.000
5.200	11854.900	183.832	504.333	-373.812	19.000
5.220	11864.680	175.637	518.083	-444.321	21.000
5.240	11875.620	166.083	533.250	-512.748	20.000
5.260	11885.940	155.124	528.500	-582.996	19.000
5.280	11897.000	142.792	579.417	-646.805	21.000
5.300	11908.880	129.226	574.750	-715.493	19.000
5.320	11920.080	114.130	594.250	-792.766	21.000
5.340	11932.640	97.552	609.417	-867.112	20.000
5.360	11944.460	79.662	615.167	-905.163	19.000
5.380	11957.660	61.584	717.000	-905.619	22.000
5.400	11972.600	43.632	697.583	-883.243	18.000
5.420	11985.680	26.663	710.667	-799.661	21.000
5.440	12001.200	12.270	762.500	-619.161	19.000
5.460	12015.900	2.607	752.333	-323.598	20.000
5.480	12031.360	-0.219	771.167	46.767	20.000
5.500	12046.400	4.418	724.417	405.880	20.000
5.520	12060.120	15.533	643.417	688.759	20.000
5.540	12072.120	31.206	562.500	847.273	20.000
5.560	12082.700	48.784	493.500	906.009	20.000
5.580	12092.040	67.079	461.917	914.009	22.000
5.600	12101.040	85.079	394.583	882.658	18.000
5.620	12107.980	102.204	359.000	823.662	22.000
5.640	12115.520	117.939	345.333	751.983	19.000
5.660	12121.720	132.285	312.750	682.775	21.000
5.680	12128.080	145.258	290.083	615.974	18.000
5.700	12133.400	156.888	278.250	541.433	21.000
5.720	12139.340	166.926	292.417	468.583	20.000
5.740	12145.020	175.683	285.583	405.880	20.000
5.760	12150.860	183.161	297.083	343.371	20.000
5.780	12157.020	189.358	329.417	270.066	21.000
5.800	12164.040	193.917	361.583	190.516	20.000
5.820	12171.400	196.914	372.083	98.283	19.000
5.840	12179.120	197.882	428.333	17.432	21.000
5.860	12188.360	197.492	446.167	-84.688	18.000
5.880	12196.920	194.354	453.167	-215.884	20.000
5.900	12206.720	189.015	513.833	-315.207	21.000
5.920	12217.240	181.881	523.833	-392.740	20.000
5.940	12227.600	173.357	521.167	-463.509	20.000
5.960	12238.240	163.351	553.000	-534.668	21.000
5.980	12249.640	152.017	566.750	-596.070	20.000
6.000	12260.840	139.482	568.583	-662.611	20.000
6.020	12272.380	125.464	567.417	-738.649	19.000
6.040	12283.700	109.947	600.583	-813.255	21.000
6.060	12296.340	93.009	614.833	-878.560	19.000
6.080	12308.380	75.025	645.417	-906.529	21.000
6.100	12322.260	56.948	702.667	-906.529	20.000
6.120	12336.160	39.027	684.500	-871.275	19.000
6.140	12349.940	22.589	737.417	-760.113	21.000
6.160	12365.540	9.257	764.500	-551.060	19.000
6.180	12380.320	1.218	750.333	-232.210	20.000
6.200	12395.720	0.312	787.083	142.578	21.000
6.220	12411.300	6.759	728.250	491.023	20.000
6.240	12424.480	19.373	599.917	746.064	19.000
6.260	12435.620	35.858	544.917	880.772	21.000
6.280	12446.300	54.044	485.417	931.637	19.000
6.300	12455.080	72.746	430.500	927.734	21.000
6.320	12463.660	90.886	404.250	883.178	20.000
6.340	12471.180	107.933	359.083	818.914	20.000
6.360	12478.080	123.575	323.500	744.308	19.000
6.380	12484.260	137.718	314.500	674.254	21.000
6.400	12490.660	150.534	301.250	601.664	19.000
6.420	12496.340	161.790	292.333	530.310	21.000
6.440	12502.420	171.749	295.583	460.257	19.000
6.460	12508.180	180.164	296.083	382.593	20.000
6.480	12514.440	187.064	332.000	308.833	21.000
6.500	12521.440	192.481	361.083	229.608	20.000
6.520	12528.820	196.165	375.083	135.163	19.000
6.540	12536.560	197.866	413.000	39.157	20.000
6.560	12545.380	197.710	458.833	-56.589	20.000
6.580	12554.800	195.447	481.750	-184.467	20.000
6.600	12564.620	190.389	500.083	-302.328	20.000
6.620	12574.860	183.567	534.917	-379.666	21.000
6.640	12585.840	175.231	533.083	-457.265	19.000
6.660	12596.180	165.302	529.250	-531.676	20.000
6.680	12607.240	154.016	575.250	-596.331	21.000
6.700	12619.040	141.449	587.250	-661.375	20.000
6.720	12630.660	127.524	589.000	-732.534	20.000
6.740	12642.600	112.101	590.417	-814.036	19.000
6.760	12654.360	95.038	601.750	-884.999	20.000
6.780	12666.940	76.930	668.417	-917.067	21.000
6.800	12680.960	58.556	707.250	-921.359	20.000
6.820	12694.980	40.338	691.833	-890.723	19.000
6.840	12708.940	23.432	747.333	-782.554	21.000
6.860	12724.740	9.710	773.500	-569.337	19.000
6.880	12739.680	1.343	758.750	-244.699	20.000
6.900	12755.260	0.265	798.250	135.488	21.000
6.920	12771.000	6.603	716.000	490.243	19.000
6.940	12783.720	19.279	606.417	748.666	20.000
6.960	12795.520	35.795	555.083	885.260	20.000
6.980	12805.880	54.122	486.417	937.295	20.000
7.000	12815.060	72.887	433.500	929.880	20.000
7.020	12823.300	91.058	392.083	883.894	20.000
7.040	12830.840	108.104	369.417	818.263	21.000
7.060	12838.020	123.731	330.667	744.828	19.000
7.080	12844.160	137.890	309.667	673.604	21.000
7.100	12850.500	150.581	307.333	579.224	19.000
7.120	12856.360	161.243	279.167	523.806	20.000
7.140	12861.860	171.547	291.583	471.315	20.000
7.160	12868.040	179.898	302.583	376.479	20.000
7.180	12873.960	186.705	309.083	306.686	20.000
7.200	12880.540	192.153	342.583	234.617	20.000
7.220	12887.680	195.977	375.333	140.952	20.000
7.240	12895.580	197.773	413.583	46.117	20.000
7.260	12904.200	197.835	447.667	-41.368	20.000
7.280	12913.440	195.946	472.250	-164.433	20.000
7.300	12923.120	191.294	506.500	-280.148	20.000
7.320	12933.600	184.909	523.917	-364.511	20.000
7.340	12943.920	176.776	508.833	-444.776	20.000
7.360	12954.100	167.285	525.333	-487.576	20.000
7.380	12965.000	157.044	551.250	-580.720	20.000
7.400	12976.160	144.072	581.333	-670.417	20.000
7.420	12988.100	130.443	580.333	-713.346	20.000
7.440	12999.380	115.379	580.583	-794.587	20.000
7.460	13011.480	98.707	609.583	-867.698	20.000
7.480	13023.860	80.879	655.250	-905.033	20.000
7.500	13037.640	62.693	694.667	-916.481	20.000
7.520	13051.400	44.475	678.333	-892.024	20.000
7.540	13065.080	27.428	732.500	-805.450	20.000
7.560	13080.580	12.848	756.917	-628.528	20.000
7.580	13095.280	2.982	772.917	-338.753	20.000
7.600	13111.340	-0.250	765.250	25.237	19.000
7.620	13125.660	3.950	720.083	380.707	21.000
7.640	13139.960	14.534	647.500	666.319	19.000
7.660	13151.420	29.879	543.333	834.980	20.000
7.680	13162.020	47.269	510.333	898.269	21.000
7.700	13171.740	65.440	451.250	911.343	20.000
7.720	13180.040	83.439	381.333	881.552	19.000
7.740	13187.280	100.518	371.917	823.727	22.000
7.760	13194.820	116.316	336.417	756.211	18.000
7.780	13200.720	130.756	292.917	688.304	20.000
7.800	13206.820	143.853	309.167	622.088	21.000
7.820	13212.980	155.624	296.083	553.206	20.000
7.840	13218.700	165.958	293.833	478.990	21.000
7.860	13224.700	174.825	280.583	412.969	18.000
7.880	13230.060	182.505	292.917	352.218	21.000
7.900	13236.520	188.890	323.000	289.970	19.000
7.920	13242.960	193.948	343.750	199.297	21.000
7.940	13250.380	196.774	387.750	90.282	19.000
7.960	13258.440	197.741	419.917	24.327	20.000
7.980	13267.300	197.570	482.083	-77.013	22.000
8.000	13277.540	194.479	508.833	-214.778	20.000
8.020	13287.480	189.155	503.167	-315.597	20.000
8.040	13297.760	181.975	520.833	-398.725	20.000
8.060	13308.300	173.279	537.333	-470.794	20.000
8.080	13319.100	163.164	519.583	-537.725	18.000
8.100	13329.240	151.658	528.667	-632.821	20.000
8.120	13340.580	138.061	612.500	-683.361	22.000
8.140	13353.260	124.340	589.667	-730.128	18.000
8.160	13364.260	108.620	588.500	-828.085	21.000
8.180	13377.160	91.354	663.667	-898.919	21.000
8.200	13390.540	72.918	681.250	-929.100	20.000
8.220	13404.220	54.466	656.167	-916.936	18.000
8.240	13417.240	36.498	726.417	-873.682	22.000
8.260	13433.280	20.060	797.500	-746.519	20.000
8.280	13448.680	7.353	777.083	-505.593	20.000
8.300	13464.340	0.468	764.500	-162.612	19.000
8.320	13479.220	1.108	749.333	222.909	20.000
8.340	13494.120	9.132	703.000	568.166	20.000
8.360	13507.080	23.166	606.917	805.320	20.000
8.380	13518.500	40.572	534.500	918.693	20.000
8.400	13528.600	59.352	488.833	948.028	21.000
8.420	13538.000	78.132	426.250	923.766	19.000
8.440	13545.760	96.115	385.083	874.007	21.000
8.460	13553.480	112.975	356.000	807.141	19.000
8.480	13560.020	128.336	326.250	729.347	21.000
8.500	13566.640	142.183	320.250	661.896	20.000
8.520	13572.740	154.734	290.250	577.988	19.000
8.540	13578.380	165.302	286.250	493.690	20.000
8.560	13584.280	174.575	296.833	428.255	20.000
8.580	13590.260	182.427	304.750	360.868	20.000
8.600	13596.540	188.953	323.750	283.855	20.000
8.620	13603.320	193.714	364.917	195.134	21.000
8.640	13611.060	196.742	387.250	105.438	19.000
8.660	13618.840	197.913	415.500	14.115	20.000
8.680	13627.760	197.242	459.917	-86.835	20.000
8.700	13637.200	194.323	499.250	-212.111	21.000
8.720	13647.560	188.859	506.417	-317.939	19.000
8.740	13657.420	181.756	505.167	-396.578	20.000
8.760	13667.980	173.014	553.167	-476.713	21.000
8.780	13679.320	162.742	550.667	-546.897	19.000
8.800	13690.000	151.159	546.250	-613.958	20.000
8.820	13701.420	138.171	597.917	-683.946	21.000
8.840	13713.680	123.793	596.083	-754.129	19.000
8.860	13725.260	107.964	594.583	-834.460	20.000
8.880	13737.660	90.496	630.250	-898.659	20.000
8.900	13750.560	72.059	681.167	-974.176	21.000
8.920	13764.820	52.234	715.917	-916.546	20.000
8.940	13779.060	35.671	723.000	-824.052	20.000
8.960	13793.840	19.357	757.000	-744.893	20.000
8.980	13809.200	6.822	760.833	-495.186	19.000
9.000	13824.260	0.219	764.500	-140.367	20.000
9.020	13839.820	1.405	789.667	244.894	21.000
9.040	13855.320	9.710	714.500	580.200	20.000
9.060	13868.160	23.978	598.750	815.857	20.000
9.080	13879.500	41.556	534.750	923.246	20.000
9.100	13889.560	60.367	462.333	950.304	19.000
9.120	13898.180	79.240	425.333	930.856	21.000
9.140	13906.640	97.380	399.917	878.430	20.000
9.160	13914.060	114.255	345.917	808.312	19.000
9.180	13920.620	129.663	321.083	731.103	20.000
9.200	13927.000	143.510	312.083	659.164	20.000
9.220	13933.100	155.951	297.917	570.963	20.000
9.240	13939.000	166.364	301.167	484.649	21.000
9.260	13945.120	175.465	294.500	425.133	19.000
9.280	13950.880	183.301	307.250	349.551	21.000
9.300	13957.460	189.421	325.667	270.847	19.000
9.320	13963.980	194.120	357.000	192.337	21.000
9.340	13971.760	197.008	389.500	90.607	19.000
9.360	13979.600	197.835	429.417	14.180	21.000
9.380	13988.940	197.398	473.417	-97.372	20.000
9.400	13998.360	193.839	482.917	-230.909	20.000
9.420	14008.220	188.406	488.417	-313.776	19.000
9.440	14017.940	181.319	502.000	-400.025	20.000
9.460	14028.360	172.546	528.333	-456.680	20.000
9.480	14039.000	162.961	538.500	-535.058	20.000
9.500	14049.900	151.143	550.333	-615.194	20.000
9.520	14061.020	138.514	563.417	-660.140	20.000
9.540	14072.440	124.621	577.000	-731.234	20.000
9.560	14084.100	109.213	588.833	-813.320	20.000
9.580	14096.060	92.228	613.083	-871.145	20.000
9.600	14108.660	74.573	640.750	-898.464	20.000
9.620	14121.780	56.573	690.583	-875.568	21.000
9.640	14136.080	39.604	697.083	-860.022	19.000
9.660	14149.680	22.620	704.583	-779.497	20.000
9.680	14164.560	9.351	781.917	-535.774	20.000
9.700	14180.520	1.624	765.583	-236.633	20.000
9.720	14195.140	0.219	755.750	119.487	20.000
9.740	14210.580	6.354	724.833	472.876	21.000
9.760	14223.660	18.514	595.750	721.282	19.000
9.780	14234.720	34.500	538.667	858.331	20.000
9.800	14245.280	52.280	490.250	908.676	20.000
9.820	14254.260	70.483	422.333	907.115	20.000
9.840	14262.320	88.294	384.250	864.185	20.000
9.860	14269.680	104.904	352.833	800.246	20.000
9.880	14276.420	120.250	314.250	729.672	20.000
9.900	14282.380	134.065	302.167	654.871	20.000
9.920	14288.500	146.460	285.917	583.452	20.000
9.940	14293.800	157.419	263.083	514.439	20.000
9.960	14299.160	167.051	267.667	446.663	20.000
9.980	14304.520	175.324	268.750	384.805	19.000
10.000	14310.020	182.505	292.167	336.412	21.000
10.020	14316.180	188.703	305.167	273.058	19.000
10.040	14322.320	193.339	335.667	194.679	21.000
10.060	14329.680	196.461	378.833	113.308	20.000
10.080	14337.460	197.851	421.667	29.400	21.000
10.100	14346.380	197.601	429.583	-57.500	18.000
10.120	14354.720	195.400	456.583	-174.385	21.000
10.140	14364.660	190.654	486.917	-286.392	19.000
10.160	14374.120	184.129	498.167	-362.950	21.000
10.180	14384.720	176.167	543.500	-438.792	21.000
10.200	14395.640	166.614	541.583	-509.171	20.000
10.220	14406.380	155.842	546.750	-571.614	20.000
10.240	14417.420	143.728	527.833	-641.277	18.000
10.260	14427.740	130.272	560.500	-688.954	21.000
10.280	14439.840	115.957	588.833	-782.229	19.000
10.300	14451.220	99.019	600.583	-872.771	21.000
10.320	14463.940	81.441	630.667	-888.382	19.000
10.340	14476.400	63.614	646.167	-890.463	20.000
10.360	14489.920	45.927	686.250	-885.520	20.000
10.380	14503.980	28.615	754.000	-815.402	22.000
10.400	14519.880	13.972	791.167	-639.130	20.000
10.420	14535.120	3.669	725.083	-368.088	18.000
10.440	14549.160	-0.250	722.083	-12.814	20.000
10.460	14564.200	3.185	772.250	345.648	22.000
10.480	14579.220	13.175	649.250	640.561	18.000
10.500	14590.260	28.115	557.583	825.093	22.000
10.520	14601.820	45.459	529.750	892.870	20.000
10.540	14611.180	63.426	434.667	905.358	20.000
10.560	14619.440	81.379	391.083	873.942	20.000
10.580	14626.900	98.192	358.000	812.409	20.000
