%Time (s)	Wheel Position (deg)	Slide position (mm)	Wheel Speed (deg/s)	Slide Speed (mm/s)	Actual sample time (ms)	%2/9/20163:11 PM
0.000	5081.220	117.377	876.167	-1088.655	20.000
0.020	5098.500	94.507	848.000	-1207.492	19.000
0.040	5115.400	69.405	870.833	-1280.212	20.000
0.060	5133.620	44.085	937.833	-1231.558	20.000
0.080	5153.180	21.246	1069.000	-1019.902	22.000
0.100	5175.660	4.808	1055.667	-564.459	18.000
0.120	5195.160	-0.031	1009.333	111.682	20.000
0.140	5216.100	9.335	998.083	798.685	20.000
0.160	5234.460	30.660	852.250	1272.146	20.000
0.180	5250.520	58.650	792.000	1491.737	22.000
0.200	5265.980	89.169	685.833	1538.179	18.000
0.220	5278.180	119.391	610.167	1472.224	20.000
0.240	5291.140	147.428	683.917	1318.783	22.000
0.260	5305.360	171.390	710.583	1048.067	20.000
0.280	5319.280	188.656	670.333	663.132	18.000
0.300	5332.760	197.679	756.833	243.463	22.000
0.320	5349.460	198.584	822.833	-148.172	20.000
0.340	5365.160	192.387	789.417	-433.979	20.000
0.360	5381.000	181.881	755.583	-610.966	18.000
0.380	5395.620	168.206	764.000	-755.235	20.000
0.400	5411.800	151.768	819.333	-888.902	20.000
0.420	5428.200	132.738	829.000	-1008.975	20.000
0.440	5445.000	111.476	845.167	-1119.486	20.000
0.460	5462.260	88.029	922.583	-1227.786	22.000
0.480	5481.440	62.771	890.000	-1279.236	18.000
0.500	5498.300	37.762	957.750	-1190.190	22.000
0.520	5519.720	16.360	1014.750	-921.425	18.000
0.540	5538.640	2.388	1019.167	-411.083	21.000
0.560	5560.620	0.921	1078.500	270.391	20.000
0.580	5580.900	12.910	965.917	901.326	21.000
0.600	5598.960	35.639	808.000	1310.197	19.000
0.620	5613.540	63.817	715.500	1478.013	21.000
0.640	5627.820	93.727	658.500	1494.404	19.000
0.660	5640.060	122.888	626.667	1408.155	21.000
0.680	5653.080	149.551	627.167	1256.210	19.000
0.700	5665.220	172.452	627.667	996.811	20.000
0.720	5678.580	188.750	712.250	623.194	21.000
0.740	5693.420	197.242	728.750	232.665	19.000
0.760	5707.740	198.303	756.750	-117.601	21.000
0.780	5723.600	193.043	766.667	-384.805	19.000
0.800	5738.400	183.379	775.000	-578.183	21.000
0.820	5754.700	170.204	811.500	-729.933	20.000
0.840	5770.540	154.359	775.417	-854.949	19.000
0.860	5785.960	136.063	792.083	-974.696	20.000
0.880	5802.380	115.441	833.167	-1082.931	20.000
0.900	5819.320	92.790	879.583	-1191.360	21.000
0.920	5837.460	68.078	907.250	-1262.454	20.000
0.940	5855.500	43.086	907.167	-1209.378	19.000
0.960	5874.080	20.794	976.500	-993.559	20.000
0.980	5894.560	4.761	1043.750	-552.686	20.000
1.000	5915.580	-0.062	1081.000	101.080	21.000
1.020	5937.000	8.883	972.083	768.634	19.000
1.040	5954.160	29.504	809.250	1236.567	20.000
1.060	5969.900	56.823	760.500	1457.589	21.000
1.080	5984.560	86.686	691.667	1511.706	20.000
1.100	5997.680	116.519	639.083	1454.206	20.000
1.120	6010.400	144.259	634.250	1313.645	20.000
1.140	6023.240	168.393	660.083	1071.483	20.000
1.160	6036.820	186.408	682.000	711.525	19.000
1.180	6050.620	196.555	723.083	305.971	20.000
1.200	6065.760	198.787	769.583	-80.916	20.000
1.220	6081.220	193.995	776.750	-342.721	20.000
1.240	6096.920	185.346	809.500	-575.972	21.000
1.260	6113.480	171.281	818.583	-766.553	20.000
1.280	6129.560	155.311	806.417	-830.947	20.000
1.300	6145.880	137.687	827.667	-984.323	20.000
1.320	6162.580	116.019	824.833	-1120.852	19.000
1.340	6179.000	93.181	842.500	-1197.410	20.000
1.360	6196.560	68.266	915.083	-1273.902	21.000
1.380	6215.520	43.039	969.167	-1218.874	20.000
1.400	6235.120	20.622	980.833	-998.307	19.000
1.420	6254.880	4.558	1025.500	-547.222	20.000
1.440	6276.040	0.016	1060.750	123.130	20.000
1.460	6296.760	9.523	999.333	800.311	21.000
1.480	6315.580	30.784	863.833	1266.552	20.000
1.500	6331.360	58.634	739.500	1482.371	20.000
1.520	6345.520	88.934	681.000	1527.122	20.000
1.540	6358.800	118.954	649.000	1462.662	20.000
1.560	6371.660	146.835	642.917	1314.230	20.000
1.580	6384.720	170.797	670.333	1053.856	20.000
1.600	6398.580	188.266	717.333	673.409	20.000
1.620	6413.280	197.476	734.500	254.780	19.000
1.640	6427.980	198.647	755.333	-134.383	20.000
1.660	6443.640	192.699	811.083	-427.735	21.000
1.680	6460.180	182.302	820.250	-583.582	20.000
1.700	6476.220	169.377	783.500	-757.642	19.000
1.720	6491.760	152.127	793.750	-914.790	20.000
1.740	6508.240	133.128	860.083	-1004.422	21.000
1.760	6525.840	111.867	851.833	-1121.502	19.000
1.780	6542.440	88.357	876.083	-1228.826	21.000
1.800	6560.920	63.114	899.917	-1281.382	19.000
1.820	6578.620	38.028	955.417	-1186.872	21.000
1.840	6599.300	16.766	1054.000	-928.514	20.000
1.860	6620.180	2.420	1028.917	-419.019	19.000
1.880	6640.440	1.093	1021.750	278.066	20.000
1.900	6660.800	13.207	977.167	913.944	20.000
1.920	6679.040	36.326	841.167	1329.516	20.000
1.940	6694.460	64.941	706.917	1518.926	20.000
1.960	6707.840	95.881	674.167	1521.333	20.000
1.980	6721.540	125.105	648.667	1427.928	20.000
2.000	6733.880	152.517	627.333	1277.089	20.000
2.020	6747.100	175.324	702.167	981.266	21.000
2.040	6761.760	191.138	722.083	586.444	19.000
2.060	6776.060	198.569	765.417	155.912	20.000
2.080	6792.260	197.726	788.000	-215.884	20.000
2.100	6807.400	190.607	769.500	-474.827	20.000
2.120	6823.360	179.258	827.750	-651.814	20.000
2.140	6840.180	164.787	811.833	-794.262	20.000
2.160	6855.840	147.600	798.917	-922.725	20.000
2.180	6872.400	127.961	837.417	-1038.375	20.000
2.200	6889.380	106.106	884.583	-1149.146	20.000
2.220	6907.520	82.050	871.583	-1267.463	20.000
2.240	6924.500	56.105	910.250	-1271.756	20.000
2.260	6944.180	32.143	1003.333	-1129.958	20.000
2.280	6964.200	12.067	997.333	-817.873	20.000
2.300	6984.320	0.937	1061.333	-251.203	20.000
2.320	7006.260	2.747	1062.500	436.386	20.000
2.340	7025.940	17.874	890.417	1039.676	20.000
2.360	7042.160	42.836	791.000	1392.089	20.000
2.380	7057.820	72.122	735.167	1517.755	20.000
2.400	7071.460	102.625	641.750	1512.226	20.000
2.420	7083.900	131.926	626.083	1408.220	20.000
2.440	7096.780	158.340	650.917	1219.395	20.000
2.460	7110.120	179.867	706.417	892.219	20.000
2.480	7125.000	193.495	756.917	478.600	20.000
2.500	7140.120	199.037	750.167	76.037	20.000
2.520	7155.120	196.836	771.917	-284.116	20.000
2.540	7171.040	188.344	800.000	-531.416	20.000
2.560	7187.100	176.136	828.167	-688.304	20.000
2.580	7203.960	160.978	808.750	-827.500	19.000
2.600	7219.720	143.104	854.167	-959.866	22.000
2.620	7237.900	122.685	849.500	-1074.930	18.000
2.640	7253.620	100.159	822.333	-1187.263	20.000
2.660	7271.280	75.400	890.333	-1276.439	20.000
2.680	7289.400	49.767	990.417	-1264.406	22.000
2.700	7310.460	25.898	1000.917	-1090.606	18.000
2.720	7329.360	7.602	991.333	-687.719	20.000
2.740	7350.740	-0.172	1143.250	-43.190	22.000
2.760	7373.720	6.260	1009.750	668.400	18.000
2.780	7390.960	25.524	871.250	1202.613	22.000
2.800	7408.780	52.749	775.833	1471.703	18.000
2.820	7422.120	83.112	693.000	1545.009	22.000
2.840	7436.800	113.756	662.750	1509.625	18.000
2.860	7448.800	142.776	654.500	1366.331	22.000
2.880	7463.160	167.753	679.333	1132.560	18.000
2.900	7475.920	187.173	673.583	744.763	20.000
2.920	7490.720	197.117	805.000	285.352	22.000
2.940	7507.620	198.943	832.000	-105.828	20.000
2.960	7523.560	193.433	773.333	-412.774	19.000
2.980	7538.960	183.098	806.750	-608.299	21.000
3.000	7555.840	169.423	837.000	-758.617	20.000
3.020	7572.240	152.860	823.333	-898.529	20.000
3.040	7588.920	133.597	849.333	-1019.837	20.000
3.060	7606.000	112.132	816.167	-1132.950	18.000
3.080	7622.080	88.357	893.500	-1242.095	22.000
3.100	7641.640	62.849	943.417	-1295.953	19.000
3.120	7659.600	37.435	941.417	-1209.118	20.000
3.140	7679.740	15.782	1041.667	-924.417	20.000
3.160	7700.940	2.014	1070.750	-386.561	20.000
3.180	7722.360	1.343	1085.750	326.005	21.000
3.200	7743.580	14.690	952.250	977.168	19.000
3.220	7760.280	38.949	791.833	1379.990	20.000
3.240	7775.760	68.344	732.583	1537.529	20.000
3.260	7789.760	99.378	692.750	1536.488	21.000
3.280	7803.600	129.117	674.417	1435.669	20.000
3.300	7816.740	156.373	644.583	1296.863	19.000
3.320	7829.740	179.742	679.167	933.393	20.000
3.340	7844.180	193.136	768.917	481.201	21.000
3.360	7860.120	199.209	776.250	76.363	19.000
3.380	7875.240	196.617	793.833	-260.960	21.000
3.400	7891.920	189.265	829.250	-522.635	20.000
3.420	7908.060	176.214	787.333	-705.281	19.000
3.440	7923.660	161.415	796.917	-826.264	20.000
3.460	7940.200	143.088	861.167	-978.144	21.000
3.480	7957.780	122.560	853.083	-1072.914	19.000
3.500	7974.340	100.127	847.000	-1188.238	20.000
3.520	7992.040	75.228	919.000	-1280.277	21.000
3.540	8011.000	49.611	961.917	-1264.991	20.000
3.560	8030.500	25.695	1003.333	-1090.866	20.000
3.580	8051.160	7.462	1056.083	-682.645	20.000
3.600	8072.520	-0.156	1079.333	-28.880	20.000
3.620	8093.700	6.635	987.333	685.702	19.000
3.640	8111.780	26.008	856.750	1169.050	20.000
3.660	8128.280	52.202	794.583	1477.102	21.000
3.680	8143.540	83.814	716.667	1590.475	20.000
3.700	8157.080	114.583	660.833	1502.340	20.000
3.720	8170.180	143.338	633.333	1345.321	19.000
3.740	8182.800	167.831	675.083	1108.363	21.000
3.760	8197.300	186.923	735.667	749.316	20.000
3.780	8212.020	197.257	754.417	292.637	20.000
3.800	8227.380	198.912	755.500	-110.576	19.000
3.820	8242.380	193.511	790.667	-401.326	21.000
3.840	8258.860	183.489	792.500	-590.607	19.000
3.860	8274.100	170.188	801.833	-738.388	21.000
3.880	8290.940	154.078	811.167	-871.015	19.000
3.900	8306.580	135.439	826.417	-989.722	21.000
3.920	8324.020	114.536	847.833	-1102.119	19.000
3.940	8340.400	91.385	839.667	-1219.850	20.000
3.960	8358.020	66.158	919.000	-1275.593	21.000
3.980	8377.060	41.181	973.083	-1204.955	20.000
4.000	8396.740	19.045	986.083	-976.127	19.000
4.020	8416.620	3.669	1030.583	-497.463	20.000
4.040	8437.840	0.328	1061.833	181.345	20.000
4.060	8458.520	10.834	994.250	845.387	21.000
4.080	8477.100	32.845	834.083	1289.773	19.000
4.100	8492.080	60.913	714.583	1491.932	20.000
4.120	8506.140	91.417	679.083	1530.179	20.000
4.140	8519.340	121.342	647.250	1455.507	20.000
4.160	8532.200	149.036	639.583	1298.880	20.000
4.180	8545.220	172.546	689.250	1023.285	21.000
4.200	8559.680	189.312	711.417	640.756	19.000
4.220	8573.760	197.960	752.333	226.096	21.000
4.240	8589.780	198.569	800.000	-159.100	20.000
4.260	8605.460	192.340	785.333	-408.807	20.000
4.280	8621.280	182.536	795.167	-620.267	20.000
4.300	8637.280	167.816	808.167	-791.855	20.000
4.320	8653.500	151.237	795.750	-894.106	19.000
4.340	8669.260	131.989	812.000	-1020.358	20.000
4.360	8686.140	110.508	859.250	-1129.698	20.000
4.380	8703.520	86.874	875.833	-1237.998	20.000
4.400	8721.360	61.444	935.500	-1278.325	21.000
4.420	8740.820	36.592	961.417	-1191.816	19.000
4.440	8760.020	15.049	1036.500	-911.668	21.000
4.460	8782.060	1.748	1071.583	-362.755	19.000
4.480	8802.520	1.499	1051.667	348.965	21.000
4.500	8823.640	15.252	949.083	982.632	19.000
4.520	8840.260	39.323	804.167	1368.803	20.000
4.540	8856.200	68.516	746.167	1520.097	20.000
4.560	8870.000	99.097	646.500	1519.707	20.000
4.580	8882.480	128.617	626.583	1423.050	20.000
4.600	8895.340	155.405	649.417	1239.624	20.000
4.620	8908.540	177.447	679.833	935.474	20.000
4.640	8922.620	192.231	723.917	533.693	20.000
4.660	8937.560	198.709	783.833	122.219	20.000
4.680	8953.760	197.414	804.167	-245.999	20.000
4.700	8969.540	189.577	792.833	-493.300	20.000
4.720	8985.460	178.212	780.167	-652.269	20.000
4.740	9000.880	163.491	791.250	-833.419	20.000
4.760	9017.240	145.274	827.000	-937.491	20.000
4.780	9033.880	126.088	839.500	-1026.927	20.000
4.800	9050.980	103.983	892.500	-1168.335	20.000
4.820	9069.320	79.630	886.917	-1264.016	19.000
4.840	9086.560	54.013	898.667	-1274.228	21.000
4.860	9105.660	29.692	986.833	-1126.511	20.000
4.880	9126.020	10.287	1075.500	-775.724	20.000
4.900	9148.160	0.187	1068.167	-169.767	19.000
4.920	9168.440	4.152	1022.250	550.344	21.000
4.940	9188.660	21.356	907.917	1124.885	19.000
4.960	9204.680	47.550	780.750	1435.604	21.000
4.980	9220.180	77.398	711.417	1531.935	19.000
5.000	9233.220	107.948	641.583	1503.445	20.000
5.020	9246.240	136.875	646.917	1380.966	20.000
5.040	9259.180	162.539	655.000	1164.237	20.000
5.060	9272.600	182.693	691.917	825.549	20.000
5.080	9286.900	195.072	729.750	405.554	20.000
5.100	9301.940	199.006	809.667	3.512	22.000
5.120	9318.760	195.712	776.167	-315.467	18.000
5.140	9333.160	186.970	790.917	-540.912	22.000
5.160	9350.380	174.497	803.083	-699.362	18.000
5.180	9365.080	159.105	763.083	-853.062	20.000
5.200	9381.380	140.637	822.083	-958.695	20.000
5.220	9398.020	120.827	886.167	-1053.400	22.000
5.240	9416.600	98.363	912.667	-1185.051	20.000
5.260	9434.160	73.730	855.500	-1269.870	19.000
5.280	9451.460	48.268	940.250	-1249.055	21.000
5.300	9471.580	24.837	964.917	-1067.645	18.000
5.320	9490.300	6.994	1052.917	-662.481	22.000
5.340	9513.300	-0.234	1068.750	-14.830	18.000
5.360	9532.520	6.697	989.917	683.165	22.000
5.380	9552.840	26.023	929.750	1198.580	20.000
5.400	9569.040	53.092	719.083	1462.402	18.000
5.420	9582.320	83.268	658.333	1534.992	20.000
5.440	9595.780	113.677	656.833	1492.323	20.000
5.460	9608.760	142.308	683.167	1357.680	22.000
5.480	9622.920	167.254	664.500	1110.965	18.000
5.500	9635.480	186.033	663.083	750.292	20.000
5.520	9650.060	196.852	799.500	321.191	22.000
5.540	9666.740	199.021	773.167	-84.558	18.000
5.560	9681.120	194.073	786.917	-389.033	22.000
5.580	9698.400	184.098	845.250	-590.086	20.000
5.600	9714.480	170.828	806.167	-737.933	20.000
5.620	9730.760	154.687	797.333	-875.958	19.000
5.640	9746.520	135.892	810.833	-997.852	20.000
5.660	9763.360	114.833	853.583	-1111.876	20.000
5.680	9780.680	91.479	897.583	-1223.883	21.000
5.700	9799.180	66.236	927.500	-1286.911	20.000
5.720	9817.660	40.853	927.583	-1218.224	19.000
5.740	9836.600	18.686	994.083	-972.355	20.000
5.760	9857.420	3.450	1058.917	-486.860	20.000
5.780	9878.680	0.375	1086.167	197.151	21.000
5.800	9900.160	11.209	988.917	859.177	20.000
5.820	9917.840	33.438	822.917	1302.067	20.000
5.840	9933.360	61.756	713.333	1498.437	19.000
5.860	9946.780	92.260	675.000	1528.553	21.000
5.880	9960.480	122.154	648.417	1452.840	19.000
5.900	9972.800	149.770	623.667	1293.676	20.000
5.920	9985.900	173.154	693.583	1016.910	21.000
5.940	10000.460	189.780	741.250	631.520	20.000
5.960	10015.300	198.178	737.917	209.574	19.000
5.980	10030.100	198.397	764.667	-170.287	20.000
6.000	10045.920	191.794	795.750	-496.552	20.000
6.020	10061.900	179.570	825.333	-632.821	21.000
6.040	10078.720	166.738	812.667	-734.811	19.000
6.060	10094.420	149.832	801.500	-919.994	20.000
6.080	10111.040	130.240	843.833	-1038.050	20.000
6.100	10128.100	108.385	861.667	-1151.813	20.000
6.120	10145.640	84.298	909.333	-1252.893	21.000
6.140	10164.420	58.728	942.417	-1290.229	20.000
6.160	10183.360	33.672	978.083	-1176.010	20.000
6.180	10203.680	13.035	1046.000	-854.428	20.000
6.200	10224.980	0.999	1076.667	-287.498	20.000
6.220	10246.340	2.404	1043.333	429.231	20.000
6.240	10266.240	17.625	930.000	1054.311	20.000
6.260	10283.360	43.023	781.417	1419.863	19.000
6.280	10297.940	72.918	720.667	1548.261	21.000
6.300	10312.400	103.983	693.583	1537.724	20.000
6.320	10325.600	133.722	632.167	1428.188	19.000
6.340	10338.180	160.400	670.167	1214.321	21.000
6.360	10352.460	181.491	705.083	870.104	19.000
6.380	10366.440	194.697	752.250	445.167	21.000
6.400	10382.460	199.271	782.083	14.245	19.000
6.420	10397.640	195.806	799.250	-325.744	21.000
6.440	10414.360	186.939	804.333	-549.628	19.000
6.460	10429.820	174.216	809.250	-719.591	21.000
6.480	10446.860	158.465	845.000	-834.850	20.000
6.500	10463.420	140.715	833.667	-981.071	20.000
6.520	10480.360	119.297	857.667	-1115.518	20.000
6.540	10497.740	96.334	880.167	-1208.857	20.000
6.560	10515.580	71.138	904.750	-1288.342	20.000
6.580	10533.940	45.568	925.083	-1247.689	19.000
6.600	10552.820	22.370	992.000	-1034.147	20.000
6.620	10573.640	5.635	1063.250	-596.916	20.000
6.640	10595.100	-0.125	1104.500	75.387	21.000
6.660	10617.000	8.867	993.167	788.408	19.000
6.680	10634.620	30.129	855.583	1279.951	21.000
6.700	10651.440	58.447	762.083	1510.340	19.000
6.720	10665.280	89.325	689.917	1557.823	21.000
6.740	10679.380	119.953	682.250	1491.022	19.000
6.760	10692.560	148.302	659.333	1331.467	21.000
6.780	10705.940	172.421	668.917	1046.961	19.000
6.800	10719.520	189.515	712.667	656.887	20.000
6.820	10734.520	198.381	767.917	214.127	20.000
6.840	10750.160	198.335	813.750	-188.695	21.000
6.860	10766.760	191.591	799.917	-460.777	19.000
6.880	10782.140	180.476	784.667	-644.334	20.000
6.900	10798.380	166.098	818.917	-788.863	20.000
6.920	10814.800	149.036	823.917	-919.538	20.000
6.940	10831.500	129.398	866.333	-1037.985	21.000
6.960	10849.360	107.558	889.333	-1153.895	20.000
6.980	10866.940	83.393	882.583	-1252.698	19.000
7.000	10884.880	57.931	918.583	-1282.488	20.000
7.020	10903.840	33.032	980.583	-1171.197	20.000
7.040	10924.100	12.473	1043.250	-844.281	21.000
7.060	10945.360	0.812	1077.500	-261.285	19.000
7.080	10966.660	2.794	1014.250	452.907	20.000
7.100	10985.720	18.311	927.083	1063.157	20.000
7.120	11003.560	43.773	803.833	1416.285	20.000
7.140	11018.060	73.480	713.833	1530.959	21.000
7.160	11032.460	104.233	688.583	1550.863	19.000
7.180	11045.600	134.565	646.500	1418.042	20.000
7.200	11058.620	160.244	662.917	1179.522	20.000
7.220	11072.180	181.241	678.167	874.007	19.000
7.240	11086.000	194.557	744.250	452.972	21.000
7.260	11101.880	199.302	797.833	24.197	20.000
7.280	11117.600	196.024	792.167	-322.297	20.000
7.300	11133.500	187.173	778.417	-538.961	20.000
7.320	11148.840	174.872	783.500	-697.345	19.000
7.340	11164.980	159.433	816.167	-839.468	21.000
7.360	11181.400	141.465	827.250	-949.394	20.000
7.380	11198.100	121.389	842.667	-1078.248	19.000
7.400	11215.260	98.379	894.250	-1206.191	21.000
7.420	11233.620	73.527	888.333	-1274.097	19.000
7.440	11250.940	48.050	905.167	-1251.137	21.000
7.460	11270.340	24.540	1034.000	-1069.076	20.000
7.480	11291.780	6.759	1051.667	-654.221	19.000
7.500	11312.180	-0.219	1042.333	-0.390	20.000
7.520	11333.260	6.994	1009.083	695.264	20.000
7.540	11352.020	26.507	874.333	1206.126	20.000
7.560	11368.320	53.701	764.333	1467.996	20.000
7.580	11382.820	83.970	689.500	1537.399	20.000
7.600	11396.220	114.380	668.000	1491.022	21.000
7.620	11409.740	142.963	680.500	1353.517	21.000
7.640	11423.360	167.800	663.833	1106.607	19.000
7.660	11436.620	186.486	717.917	739.104	21.000
7.680	11451.940	196.976	738.167	311.044	18.000
7.700	11466.080	198.990	742.833	-115.064	20.000
7.720	11481.880	193.183	795.083	-396.123	20.000
7.740	11497.860	183.754	848.417	-580.265	22.000
7.760	11515.360	170.157	804.667	-747.170	18.000
7.780	11530.300	154.047	816.500	-883.829	22.000
7.800	11548.280	134.846	891.000	-1021.398	20.000
7.820	11565.260	113.381	804.417	-1123.714	18.000
7.840	11581.200	89.965	882.417	-1224.468	22.000
7.860	11600.600	64.691	959.000	-1291.594	20.000
7.880	11619.220	39.199	958.917	-1218.484	20.000
7.900	11639.260	17.234	1032.750	-948.743	20.000
7.920	11660.340	2.747	1075.833	-438.597	20.000
7.940	11681.700	0.781	1010.917	257.447	18.000
7.960	11700.540	12.832	906.417	918.367	20.000
7.980	11718.240	36.123	871.750	1344.541	22.000
8.000	11735.120	65.081	773.917	1526.146	20.000
8.020	11749.120	96.084	654.417	1548.456	19.000
8.040	11761.840	126.244	636.083	1459.085	20.000
8.060	11774.940	153.797	685.000	1278.846	21.000
8.080	11789.020	176.604	670.833	972.094	18.000
8.100	11802.160	192.043	741.333	562.052	22.000
8.120	11818.600	198.912	797.583	122.740	19.000
8.140	11833.660	197.367	768.750	-250.097	20.000
8.160	11849.600	189.733	806.000	-475.412	20.000
8.180	11865.660	178.634	782.667	-670.156	19.000
8.200	11881.160	163.148	815.333	-835.826	21.000
8.220	11898.300	145.523	851.917	-942.109	20.000
8.240	11915.040	125.448	841.917	-1060.620	20.000
8.260	11932.240	103.140	892.667	-1175.034	21.000
8.280	11950.620	78.631	914.750	-1268.438	20.000
8.300	11968.700	52.998	908.333	-1273.122	19.000
8.320	11987.180	28.739	937.750	-1120.852	19.000
8.340	12006.720	9.554	1079.500	-753.479	22.000
8.360	12029.720	0.078	1099.333	-139.521	19.000
8.380	12049.940	4.543	983.417	573.695	20.000
8.400	12069.100	22.136	895.917	1133.926	20.000
8.420	12085.740	48.331	799.500	1436.059	21.000
8.440	12101.100	78.241	700.167	1532.130	19.000
8.460	12114.060	108.729	655.417	1499.803	21.000
8.480	12127.620	137.609	666.083	1381.942	20.000
8.500	12140.600	163.320	637.500	1162.285	19.000
8.520	12153.560	183.301	701.583	810.783	21.000
8.540	12168.580	195.322	742.083	391.244	19.000
8.560	12183.080	199.037	749.000	-13.724	20.000
8.580	12198.660	195.306	788.000	-329.322	20.000
8.600	12214.440	186.470	791.917	-546.246	20.000
8.620	12230.340	173.826	797.000	-709.509	20.000
8.640	12246.460	158.293	835.167	-843.241	21.000
8.660	12263.540	140.169	824.750	-969.688	19.000
8.680	12279.600	119.594	849.417	-1080.524	21.000
8.700	12297.520	96.958	870.083	-1198.255	19.000
8.720	12314.440	71.934	891.333	-1282.683	21.000
8.740	12333.440	46.473	972.750	-1233.184	20.000
8.760	12353.040	23.557	981.667	-1052.034	19.000
8.780	12372.860	5.901	1027.667	-630.219	20.000
8.800	12394.200	-0.156	1101.500	50.215	21.000
8.820	12416.080	8.024	1020.417	745.608	20.000
8.840	12434.440	28.490	834.500	1241.900	19.000
8.860	12449.880	56.121	739.000	1481.200	20.000
8.880	12464.320	86.562	694.500	1545.399	20.000
8.900	12477.760	117.112	657.250	1490.827	20.000
8.920	12490.800	145.523	650.500	1340.508	20.000
8.940	12503.980	170.017	675.917	1082.866	20.000
8.960	12517.960	188.078	721.417	700.077	20.000
8.980	12532.820	197.663	759.833	258.943	20.000
9.000	12548.380	198.678	809.250	-141.147	21.000
9.020	12564.980	192.668	822.250	-433.003	20.000
9.040	12581.020	181.990	784.417	-621.633	19.000
9.060	12596.600	168.081	801.667	-773.643	20.000
9.080	12613.080	151.174	807.500	-908.741	19.000
9.100	12629.060	131.817	844.500	-1031.350	21.000
9.120	12646.900	109.978	891.583	-1147.911	20.000
9.140	12664.480	86.031	884.167	-1250.226	20.000
9.160	12682.460	60.382	917.667	-1298.944	20.000
9.180	12701.340	35.109	972.583	-1181.474	20.000
9.200	12721.540	14.346	1067.500	-883.959	21.000
9.220	12743.700	1.296	1106.917	-332.769	20.000
9.240	12765.140	2.029	1024.917	392.350	19.000
9.260	12784.480	16.438	916.167	1019.187	20.000
9.280	12801.800	41.322	810.500	1403.341	20.000
9.300	12817.100	71.029	743.750	1540.586	21.000
9.320	12831.580	101.954	670.417	1535.317	19.000
9.340	12844.220	131.755	652.000	1434.758	21.000
9.360	12857.860	158.652	663.833	1233.249	19.000
9.380	12870.860	180.273	679.250	900.805	20.000
9.400	12885.380	194.120	769.417	477.169	20.000
9.420	12901.360	199.302	803.667	43.970	20.000
9.440	12917.200	196.368	775.583	-306.426	20.000
9.460	12932.540	187.704	784.333	-551.645	20.000
9.480	12948.680	174.872	812.917	-704.110	20.000
9.500	12964.960	159.729	818.750	-832.573	20.000
9.520	12981.460	141.558	832.000	-971.054	20.000
9.540	12998.280	121.015	851.833	-1084.167	20.000
9.560	13015.560	98.207	875.833	-1204.500	20.000
9.580	13033.320	73.121	896.917	-1286.196	20.000
9.600	13051.580	47.488	943.667	-1256.405	20.000
9.620	13071.180	23.947	1012.083	-1065.759	20.000
9.640	13091.960	6.354	1063.250	-638.024	20.000
9.660	13113.460	-0.172	1077.500	26.733	20.000
9.680	13134.640	7.665	1026.333	733.445	20.000
9.700	13154.020	28.021	886.500	1245.738	20.000
9.720	13170.120	55.871	753.250	1493.298	20.000
9.740	13184.540	86.499	692.083	1550.798	20.000
9.760	13198.020	117.096	659.833	1495.055	20.000
9.780	13211.120	145.633	657.167	1344.671	20.000
9.800	13224.400	170.126	665.833	1076.686	20.000
9.820	13237.860	188.016	686.083	699.947	19.000
9.840	13252.140	197.757	764.917	262.131	21.000
9.860	13268.380	198.694	828.583	-145.180	20.000
9.880	13284.980	192.637	843.000	-435.345	21.000
9.900	13301.720	181.896	780.083	-627.357	19.000
9.920	13316.540	167.862	791.750	-773.253	20.000
9.940	13333.640	151.065	855.333	-909.912	20.000
9.960	13350.320	131.567	816.000	-1030.700	20.000
9.980	13366.680	109.915	870.583	-1140.170	20.000
10.000	13385.020	86.031	888.750	-1243.721	20.000
10.020	13402.300	60.414	913.667	-1333.613	20.000
10.040	13421.980	34.047	1036.250	-1190.385	21.000
